%OpenBCI Raw EEG Data
%
%Sample Rate = 250.0 Hz
%First Column = SampleIndex
%Last Column = Timestamp 
%Other Columns = EEG data in microvolts followed by Accel Data (in G) interleaved with Aux Data
0, -7041.56, -7113.40, -7197.95, -7219.37, -150602.86, -140612.92, -161165.66, -187500.02, -0.396, 0.052, 0.932, 23:16:28.716
1, -7036.33, -7108.41, -7193.13, -7214.32, -150597.27, -140606.92, -161159.45, -187500.02, 0.000, 0.000, 0.000, 23:16:28.719
2, -7039.10, -7111.01, -7195.61, -7216.86, -150599.39, -140609.77, -161162.69, -187500.02, 0.000, 0.000, 0.000, 23:16:28.720
3, -7046.99, -7118.61, -7203.07, -7224.44, -150606.70, -140617.66, -161170.89, -187500.02, 0.000, 0.000, 0.000, 23:16:28.721
4, -7044.42, -7116.12, -7200.79, -7222.07, -150603.72, -140614.28, -161167.30, -187500.02, 0.000, 0.000, 0.000, 23:16:28.722
5, -7037.96, -7110.07, -7194.80, -7215.88, -150596.86, -140606.92, -161159.63, -187500.02, 0.000, 0.000, 0.000, 23:16:28.722
6, -7039.84, -7111.86, -7196.50, -7217.58, -150598.38, -140608.83, -161161.73, -187500.02, -0.400, 0.054, 0.932, 23:16:28.723
7, -7044.98, -7116.66, -7200.99, -7222.32, -150602.86, -140613.97, -161167.41, -187500.02, 0.000, 0.000, 0.000, 23:16:28.723
8, -7041.94, -7113.87, -7198.20, -7219.48, -150599.33, -140610.33, -161163.63, -187500.02, 0.000, 0.000, 0.000, 23:16:28.724
9, -7034.45, -7106.56, -7191.09, -7212.30, -150591.41, -140601.81, -161154.73, -187500.02, 0.000, 0.000, 0.000, 23:16:28.724
10, -7032.73, -7104.75, -7189.26, -7210.49, -150589.28, -140599.84, -161153.03, -187500.02, 0.000, 0.000, 0.000, 23:16:28.725
11, -7038.70, -7110.36, -7194.74, -7216.13, -150594.66, -140605.91, -161159.67, -187500.02, 0.000, 0.000, 0.000, 23:16:28.725
12, -7040.08, -7111.79, -7196.10, -7217.47, -150595.52, -140606.77, -161160.59, -187500.02, 0.000, 0.000, 0.000, 23:16:28.726
13, -7035.12, -7107.23, -7191.70, -7212.84, -150590.14, -140600.88, -161154.23, -187500.02, 0.000, 0.000, 0.000, 23:16:28.726
14, -7033.49, -7105.73, -7190.13, -7211.34, -150588.25, -140598.95, -161152.47, -187500.02, 0.000, 0.000, 0.000, 23:16:28.727
15, -7037.16, -7108.99, -7193.26, -7214.61, -150591.23, -140602.69, -161156.77, -187500.02, 0.000, 0.000, 0.000, 23:16:28.727
16, -7035.55, -7107.36, -7191.49, -7212.93, -150589.17, -140600.77, -161154.95, -187500.02, -0.400, 0.058, 0.932, 23:16:28.728
17, -7029.27, -7101.42, -7185.79, -7206.92, -150582.61, -140593.50, -161147.27, -187500.02, 0.000, 0.000, 0.000, 23:16:28.729
18, -7030.18, -7102.51, -7186.91, -7207.86, -150583.19, -140593.94, -161147.64, -187500.02, 0.000, 0.000, 0.000, 23:16:28.729
19, -7035.79, -7107.79, -7192.01, -7213.18, -150588.19, -140599.64, -161153.91, -187500.02, 0.000, 0.000, 0.000, 23:16:28.730
20, -7038.56, -7110.27, -7194.49, -7215.79, -150590.30, -140602.23, -161156.67, -187500.02, 0.000, 0.000, 0.000, 23:16:28.730
21, -7034.67, -7106.78, -7191.07, -7212.21, -150585.98, -140597.31, -161151.38, -187500.02, 0.000, 0.000, 0.000, 23:16:28.731
22, -7029.09, -7101.33, -7185.68, -7206.74, -150580.09, -140591.02, -161144.94, -187500.02, 0.000, 0.000, 0.000, 23:16:28.731
23, -7033.07, -7104.95, -7189.15, -7210.43, -150583.52, -140595.17, -161149.45, -187500.02, 0.000, 0.000, 0.000, 23:16:28.732
24, -7036.57, -7108.35, -7192.37, -7213.78, -150586.58, -140598.59, -161153.30, -187500.02, 0.000, 0.000, 0.000, 23:16:28.732
25, -7032.53, -7104.64, -7188.66, -7210.02, -150582.06, -140593.63, -161148.00, -187500.02, 0.000, 0.000, 0.000, 23:16:28.733
26, -7028.39, -7100.57, -7184.79, -7206.11, -150577.44, -140588.59, -161142.81, -187500.02, -0.402, 0.056, 0.932, 23:16:28.733
27, -7034.23, -7106.25, -7190.38, -7211.72, -150582.80, -140594.56, -161149.17, -187500.02, 0.000, 0.000, 0.000, 23:16:28.734
28, -7040.29, -7112.08, -7196.08, -7217.45, -150588.38, -140600.64, -161155.72, -187500.02, 0.000, 0.000, 0.000, 23:16:28.734
29, -7034.21, -7106.25, -7190.35, -7211.59, -150581.91, -140593.92, -161148.72, -187500.02, 0.000, 0.000, 0.000, 23:16:28.735
30, -7025.35, -7097.60, -7181.95, -7203.05, -150572.66, -140584.17, -161138.66, -187500.02, 0.000, 0.000, 0.000, 23:16:28.744
31, -7029.24, -7101.31, -7185.57, -7206.69, -150576.02, -140587.91, -161142.70, -187500.02, 0.000, 0.000, 0.000, 23:16:28.745
32, -7035.77, -7107.54, -7191.52, -7212.80, -150582.00, -140594.53, -161149.83, -187500.02, 0.000, 0.000, 0.000, 23:16:28.745
33, -7033.11, -7104.95, -7188.99, -7210.20, -150578.91, -140591.16, -161146.30, -187500.02, 0.000, 0.000, 0.000, 23:16:28.745
34, -7027.28, -7099.45, -7183.58, -7204.50, -150572.61, -140584.33, -161139.16, -187500.02, 0.000, 0.000, 0.000, 23:16:28.746
35, -7030.79, -7102.91, -7187.09, -7207.95, -150575.56, -140587.63, -161142.58, -187500.02, 0.000, 0.000, 0.000, 23:16:28.746
36, -7037.16, -7108.93, -7192.84, -7213.82, -150581.28, -140594.08, -161149.61, -187500.02, -0.400, 0.056, 0.934, 23:16:28.746
37, -7033.36, -7105.10, -7189.06, -7210.07, -150576.92, -140589.77, -161145.34, -187500.02, 0.000, 0.000, 0.000, 23:16:28.746
38, -7025.24, -7097.28, -7181.44, -7202.16, -150568.47, -140580.59, -161135.80, -187500.02, 0.000, 0.000, 0.000, 23:16:28.747
39, -7025.33, -7097.42, -7181.55, -7202.25, -150568.14, -140580.28, -161135.58, -187500.02, 0.000, 0.000, 0.000, 23:16:28.747
40, -7032.66, -7104.43, -7188.43, -7209.47, -150574.98, -140587.86, -161143.73, -187500.02, 0.000, 0.000, 0.000, 23:16:28.747
41, -7032.73, -7104.43, -7188.48, -7209.58, -150574.64, -140587.64, -161143.59, -187500.02, 0.000, 0.000, 0.000, 23:16:28.747
42, -7026.85, -7098.80, -7183.02, -7203.90, -150568.31, -140580.70, -161136.22, -187500.02, 0.000, 0.000, 0.000, 23:16:28.748
43, -7025.78, -7097.93, -7181.93, -7202.96, -150566.84, -140579.03, -161134.53, -187500.02, 0.000, 0.000, 0.000, 23:16:28.748
44, -7032.69, -7104.55, -7188.39, -7209.49, -150573.17, -140586.09, -161142.11, -187500.02, 0.000, 0.000, 0.000, 23:16:28.748
45, -7034.85, -7106.65, -7190.49, -7211.63, -150574.83, -140588.09, -161144.36, -187500.02, -0.404, 0.054, 0.940, 23:16:28.749
46, -7027.95, -7099.96, -7183.96, -7204.95, -150567.45, -140580.20, -161136.11, -187500.02, 0.000, 0.000, 0.000, 23:16:28.749
47, -7025.06, -7097.26, -7181.28, -7202.25, -150564.19, -140576.58, -161132.27, -187500.02, 0.000, 0.000, 0.000, 23:16:28.749
48, -7030.83, -7102.71, -7186.62, -7207.63, -150569.34, -140582.44, -161138.53, -187500.02, 0.000, 0.000, 0.000, 23:16:28.749
49, -7035.52, -7107.32, -7191.09, -7212.19, -150573.73, -140587.11, -161143.63, -187500.02, 0.000, 0.000, 0.000, 23:16:28.750
50, -7031.10, -7103.09, -7186.98, -7207.92, -150568.86, -140581.83, -161138.02, -187500.02, 0.000, 0.000, 0.000, 23:16:28.750
51, -7024.86, -7097.08, -7181.08, -7201.82, -150562.16, -140574.67, -161130.64, -187500.02, 0.000, 0.000, 0.000, 23:16:28.750
52, -7029.11, -7101.13, -7185.01, -7205.84, -150565.70, -140578.83, -161135.31, -187500.02, 0.000, 0.000, 0.000, 23:16:28.750
53, -7035.19, -7106.89, -7190.65, -7211.61, -150571.19, -140584.91, -161141.78, -187500.02, 0.000, 0.000, 0.000, 23:16:28.751
54, -7030.09, -7101.91, -7185.71, -7206.56, -150565.59, -140578.97, -161135.55, -187500.02, 0.000, 0.000, 0.000, 23:16:28.751
55, -7024.21, -7096.48, -7180.36, -7200.95, -150559.42, -140572.28, -161128.56, -187500.02, -0.396, 0.058, 0.934, 23:16:28.751
56, -7027.12, -7099.23, -7183.16, -7203.88, -150561.84, -140575.17, -161131.80, -187500.02, 0.000, 0.000, 0.000, 23:16:28.751
57, -7032.51, -7104.26, -7188.01, -7209.06, -150566.75, -140580.67, -161137.88, -187500.02, 0.000, 0.000, 0.000, 23:16:28.752
58, -7031.08, -7102.91, -7186.67, -7207.61, -150564.75, -140578.44, -161135.53, -187500.02, 0.000, 0.000, 0.000, 23:16:28.752
59, -7024.19, -7096.39, -7180.34, -7201.08, -150557.48, -140570.61, -161127.33, -187500.02, 0.000, 0.000, 0.000, 23:16:28.754
60, -7025.67, -7097.71, -7181.70, -7202.49, -150558.44, -140571.77, -161128.67, -187500.02, 0.000, 0.000, 0.000, 23:16:28.754
61, -7029.47, -7101.28, -7185.01, -7205.98, -150561.72, -140575.77, -161133.19, -187500.02, 0.000, 0.000, 0.000, 23:16:28.755
62, -7027.92, -7099.65, -7183.47, -7204.26, -150559.56, -140573.67, -161131.06, -187500.02, 0.000, 0.000, 0.000, 23:16:28.755
63, -7020.86, -7093.01, -7176.94, -7197.57, -150552.20, -140565.78, -161122.70, -187500.02, 0.000, 0.000, 0.000, 23:16:28.755
64, -7020.50, -7092.70, -7176.54, -7197.35, -150551.42, -140565.00, -161122.05, -187500.02, 0.000, 0.000, 0.000, 23:16:28.756
65, -7027.34, -7099.14, -7182.82, -7203.83, -150557.67, -140571.80, -161129.55, -187500.02, -0.394, 0.062, 0.942, 23:16:28.773
66, -7029.89, -7101.53, -7185.19, -7206.25, -150559.73, -140573.94, -161131.73, -187500.02, 0.000, 0.000, 0.000, 23:16:28.773
67, -7022.92, -7094.76, -7178.58, -7199.36, -150552.09, -140565.80, -161123.27, -187500.02, 0.000, 0.000, 0.000, 23:16:28.773
68, -7019.50, -7091.58, -7175.38, -7196.21, -150548.36, -140561.89, -161119.14, -187500.02, 0.000, 0.000, 0.000, 23:16:28.774
69, -7025.80, -7097.77, -7181.30, -7202.29, -150554.22, -140568.39, -161126.17, -187500.02, 0.000, 0.000, 0.000, 23:16:28.774
70, -7028.55, -7100.41, -7183.78, -7204.84, -150556.34, -140570.86, -161129.00, -187500.02, 0.000, 0.000, 0.000, 23:16:28.774
71, -7024.71, -7096.83, -7180.43, -7201.33, -150552.11, -140566.05, -161123.91, -187500.02, 0.000, 0.000, 0.000, 23:16:28.774
72, -7022.18, -7094.58, -7178.26, -7199.05, -150549.28, -140562.88, -161120.59, -187500.02, 0.000, 0.000, 0.000, 23:16:28.775
73, -7025.98, -7097.98, -7181.46, -7202.34, -150552.34, -140566.58, -161124.75, -187500.02, 0.000, 0.000, 0.000, 23:16:28.775
74, -7025.91, -7097.71, -7181.10, -7202.04, -150551.72, -140566.58, -161124.95, -187500.02, -0.392, 0.060, 0.936, 23:16:28.775
75, -7020.66, -7092.68, -7176.25, -7197.06, -150546.08, -140560.45, -161118.56, -187500.02, 0.000, 0.000, 0.000, 23:16:28.776
76, -7016.19, -7088.54, -7172.29, -7192.99, -150541.27, -140555.30, -161113.09, -187500.02, 0.000, 0.000, 0.000, 23:16:28.776
77, -7019.79, -7092.01, -7175.56, -7196.35, -150544.42, -140558.84, -161117.06, -187500.02, 0.000, 0.000, 0.000, 23:16:28.776
78, -7024.28, -7096.19, -7179.45, -7200.28, -150548.25, -140563.20, -161121.89, -187500.02, 0.000, 0.000, 0.000, 23:16:28.776
79, -7023.01, -7095.02, -7178.35, -7199.23, -150546.50, -140561.17, -161119.61, -187500.02, 0.000, 0.000, 0.000, 23:16:28.776
80, -7017.42, -7089.84, -7173.43, -7194.22, -150540.73, -140554.83, -161112.95, -187500.02, 0.000, 0.000, 0.000, 23:16:28.777
81, -7021.26, -7093.55, -7177.08, -7197.91, -150544.05, -140558.45, -161116.98, -187500.02, 0.000, 0.000, 0.000, 23:16:28.777
82, -7027.39, -7099.20, -7182.64, -7203.48, -150549.44, -140564.50, -161123.58, -187500.02, 0.000, 0.000, 0.000, 23:16:28.777
83, -7025.22, -7097.10, -7180.45, -7201.31, -150546.64, -140561.63, -161120.48, -187500.02, 0.000, 0.000, 0.000, 23:16:28.777
84, -7018.02, -7090.35, -7173.88, -7194.56, -150539.11, -140553.55, -161112.02, -187500.02, -0.396, 0.058, 0.936, 23:16:28.778
85, -7017.17, -7089.46, -7172.88, -7193.73, -150537.73, -140552.48, -161111.08, -187500.02, 0.000, 0.000, 0.000, 23:16:28.778
86, -7023.16, -7095.07, -7178.20, -7199.30, -150543.08, -140558.45, -161117.53, -187500.02, 0.000, 0.000, 0.000, 23:16:28.778
87, -7023.14, -7094.91, -7178.15, -7199.18, -150542.48, -140557.83, -161116.91, -187500.02, 0.000, 0.000, 0.000, 23:16:28.778
88, -7018.47, -7090.71, -7174.22, -7195.07, -150537.63, -140552.38, -161111.14, -187500.02, 0.000, 0.000, 0.000, 23:16:28.779
89, -7017.33, -7089.62, -7173.17, -7194.09, -150536.20, -140550.94, -161109.84, -187500.02, 0.000, 0.000, 0.000, 23:16:28.779
90, -7022.16, -7094.13, -7177.39, -7198.40, -150540.33, -140555.78, -161115.06, -187500.02, 0.000, 0.000, 0.000, 23:16:28.805
91, -7023.95, -7095.83, -7178.84, -7199.99, -150541.45, -140557.08, -161116.44, -187500.02, 0.000, 0.000, 0.000, 23:16:28.806
92, -7017.98, -7090.08, -7173.48, -7194.40, -150535.16, -140550.20, -161109.27, -187500.02, 0.000, 0.000, 0.000, 23:16:28.807
93, -7016.86, -7089.17, -7172.70, -7193.62, -150533.78, -140548.70, -161107.72, -187500.02, 0.000, 0.000, 0.000, 23:16:28.808
94, -7023.12, -7095.07, -7178.28, -7199.32, -150539.22, -140554.78, -161114.30, -187500.02, -0.400, 0.060, 0.938, 23:16:28.808
95, -7024.84, -7096.48, -7179.54, -7200.66, -150540.17, -140556.08, -161115.86, -187500.02, 0.000, 0.000, 0.000, 23:16:28.825
96, -7018.34, -7090.44, -7173.61, -7194.60, -150533.45, -140548.75, -161108.33, -187500.02, 0.000, 0.000, 0.000, 23:16:28.826
97, -7014.45, -7086.89, -7170.31, -7191.20, -150529.53, -140544.50, -161103.97, -187500.02, 0.000, 0.000, 0.000, 23:16:28.826
98, -7019.39, -7091.47, -7174.71, -7195.70, -150533.77, -140549.33, -161109.16, -187500.02, 0.000, 0.000, 0.000, 23:16:28.827
99, -7023.41, -7095.14, -7178.13, -7199.21, -150536.95, -140553.05, -161113.06, -187500.02, 0.000, 0.000, 0.000, 23:16:28.827
100, -7017.29, -7089.32, -7172.47, -7193.39, -150530.55, -140546.20, -161105.94, -187500.02, 0.000, 0.000, 0.000, 23:16:28.827
101, -7011.38, -7083.76, -7167.13, -7187.92, -150524.44, -140539.63, -161099.23, -187500.02, 0.000, 0.000, 0.000, 23:16:28.828
102, -7015.97, -7088.07, -7171.24, -7192.17, -150528.36, -140543.94, -161103.92, -187500.02, 0.000, 0.000, 0.000, 23:16:28.828
103, -7022.00, -7093.80, -7176.63, -7197.80, -150533.56, -140549.89, -161110.30, -187500.02, 0.000, 0.000, 0.000, 23:16:28.828
104, -7016.66, -7088.65, -7171.58, -7192.66, -150527.80, -140543.86, -161104.08, -187500.02, -0.402, 0.058, 0.932, 23:16:28.828
105, -7007.92, -7080.38, -7163.60, -7184.45, -150519.08, -140534.48, -161094.52, -187500.02, 0.000, 0.000, 0.000, 23:16:28.829
106, -7010.83, -7083.25, -7166.39, -7187.25, -150521.42, -140537.17, -161097.42, -187500.02, 0.000, 0.000, 0.000, 23:16:28.829
107, -7021.49, -7093.39, -7176.27, -7197.26, -150531.08, -140547.56, -161108.19, -187500.02, 0.000, 0.000, 0.000, 23:16:28.829
108, -7017.89, -7089.88, -7172.81, -7193.82, -150527.03, -140543.47, -161103.86, -187500.02, 0.000, 0.000, 0.000, 23:16:28.829
109, -7008.75, -7081.19, -7164.52, -7185.28, -150517.94, -140533.77, -161093.98, -187500.02, 0.000, 0.000, 0.000, 23:16:28.830
110, -7012.01, -7084.47, -7167.69, -7188.52, -150520.83, -140536.75, -161097.17, -187500.02, 0.000, 0.000, 0.000, 23:16:28.830
111, -7020.59, -7092.48, -7175.40, -7196.43, -150528.38, -140545.00, -161105.83, -187500.02, 0.000, 0.000, 0.000, 23:16:28.830
112, -7019.05, -7090.80, -7173.79, -7194.71, -150526.19, -140542.89, -161103.80, -187500.02, 0.000, 0.000, 0.000, 23:16:28.830
113, -7011.72, -7084.05, -7167.18, -7188.07, -150518.91, -140535.05, -161095.59, -187500.02, -0.398, 0.058, 0.932, 23:16:28.831
114, -7011.72, -7084.12, -7167.24, -7188.23, -150518.50, -140534.55, -161095.19, -187500.02, 0.000, 0.000, 0.000, 23:16:28.831
115, -7018.65, -7090.58, -7173.35, -7194.51, -150524.44, -140541.11, -161102.36, -187500.02, 0.000, 0.000, 0.000, 23:16:28.831
116, -7018.81, -7090.64, -7173.41, -7194.53, -150523.91, -140540.91, -161102.22, -187500.02, 0.000, 0.000, 0.000, 23:16:28.831
117, -7011.27, -7083.49, -7166.51, -7187.52, -150516.17, -140532.63, -161093.59, -187500.02, 0.000, 0.000, 0.000, 23:16:28.832
118, -7009.75, -7082.26, -7165.30, -7186.33, -150514.55, -140530.70, -161091.83, -187500.02, 0.000, 0.000, 0.000, 23:16:28.832
119, -7017.24, -7089.39, -7172.21, -7193.37, -150521.25, -140538.13, -161099.50, -187500.02, 0.000, 0.000, 0.000, 23:16:28.832
120, -7018.89, -7090.80, -7173.43, -7194.60, -150522.14, -140539.31, -161101.02, -187500.02, 0.000, 0.000, 0.000, 23:16:29.198
121, -7009.53, -7081.77, -7164.63, -7185.68, -150512.58, -140529.23, -161090.69, -187500.02, 0.000, 0.000, 0.000, 23:16:29.198
122, -7004.12, -7076.70, -7159.69, -7180.83, -150507.09, -140523.61, -161084.84, -187500.02, 0.000, 0.000, 0.000, 23:16:29.198
123, -7009.64, -7081.86, -7164.63, -7185.88, -150511.80, -140528.91, -161090.42, -187500.02, -0.396, 0.058, 0.930, 23:16:29.198
124, -7014.67, -7086.71, -7169.28, -7190.47, -150516.13, -140533.59, -161095.45, -187500.02, 0.000, 0.000, 0.000, 23:16:29.199
125, -7011.00, -7083.36, -7166.06, -7187.14, -150512.33, -140529.33, -161091.05, -187500.02, 0.000, 0.000, 0.000, 23:16:29.199
126, -7006.20, -7078.84, -7161.72, -7182.76, -150507.30, -140523.95, -161085.47, -187500.02, 0.000, 0.000, 0.000, 23:16:29.199
127, -7009.77, -7082.06, -7164.78, -7186.02, -150510.03, -140527.17, -161089.08, -187500.02, 0.000, 0.000, 0.000, 23:16:29.199
128, -7013.51, -7085.37, -7167.96, -7189.19, -150512.86, -140530.63, -161092.92, -187500.02, 0.000, 0.000, 0.000, 23:16:29.200
129, -7011.59, -7083.69, -7166.37, -7187.49, -150510.61, -140528.19, -161090.27, -187500.02, 0.000, 0.000, 0.000, 23:16:29.200
130, -7005.57, -7078.04, -7160.92, -7181.86, -150504.50, -140521.55, -161083.41, -187500.02, 0.000, 0.000, 0.000, 23:16:29.200
131, -7007.58, -7079.89, -7162.68, -7183.67, -150505.94, -140523.27, -161085.33, -187500.02, 0.000, 0.000, 0.000, 23:16:29.201
132, -7013.44, -7085.37, -7167.85, -7188.97, -150510.78, -140528.81, -161091.19, -187500.02, 0.000, 0.000, 0.000, 23:16:29.201
133, -7011.27, -7083.29, -7165.79, -7186.96, -150508.19, -140526.06, -161088.34, -187500.02, -0.394, 0.066, 0.926, 23:16:29.201
134, -7003.83, -7076.34, -7159.04, -7180.03, -150500.80, -140518.08, -161080.20, -187500.02, 0.000, 0.000, 0.000, 23:16:29.201
135, -7005.17, -7077.55, -7160.27, -7181.21, -150501.64, -140519.11, -161081.31, -187500.02, 0.000, 0.000, 0.000, 23:16:29.202
136, -7011.09, -7082.95, -7165.50, -7186.47, -150506.56, -140524.72, -161087.34, -187500.02, 0.000, 0.000, 0.000, 23:16:29.202
137, -7011.05, -7082.98, -7165.41, -7186.33, -150505.95, -140524.11, -161086.92, -187500.02, 0.000, 0.000, 0.000, 23:16:29.202
138, -7004.14, -7076.52, -7159.20, -7179.92, -150498.94, -140516.58, -161079.11, -187500.02, 0.000, 0.000, 0.000, 23:16:29.202
139, -7005.28, -7077.66, -7160.31, -7181.10, -150499.67, -140517.28, -161079.86, -187500.02, 0.000, 0.000, 0.000, 23:16:29.203
140, -7011.32, -7083.13, -7165.57, -7186.44, -150504.66, -140522.94, -161085.91, -187500.02, 0.000, 0.000, 0.000, 23:16:29.203
141, -7013.17, -7084.92, -7167.35, -7188.30, -150505.94, -140524.41, -161087.47, -187500.02, 0.000, 0.000, 0.000, 23:16:29.203
142, -7005.91, -7078.15, -7160.74, -7181.62, -150498.78, -140516.56, -161079.45, -187500.02, 0.000, 0.000, 0.000, 23:16:29.204
143, -7003.81, -7076.16, -7158.88, -7179.67, -150496.44, -140514.06, -161076.81, -187500.02, -0.396, 0.068, 0.926, 23:16:29.204
144, -7012.05, -7084.12, -7166.57, -7187.40, -150503.83, -140522.13, -161085.38, -187500.02, 0.000, 0.000, 0.000, 23:16:29.205
145, -7013.84, -7085.66, -7167.85, -7188.81, -150504.84, -140523.45, -161086.94, -187500.02, 0.000, 0.000, 0.000, 23:16:29.205
146, -7007.09, -7079.31, -7161.72, -7182.51, -150497.89, -140516.05, -161079.20, -187500.02, 0.000, 0.000, 0.000, 23:16:29.205
147, -7000.77, -7073.14, -7155.84, -7176.54, -150491.25, -140509.23, -161072.25, -187500.02, 0.000, 0.000, 0.000, 23:16:29.206
148, -7007.54, -7079.51, -7161.97, -7182.76, -150497.17, -140515.72, -161079.11, -187500.02, 0.000, 0.000, 0.000, 23:16:29.206
149, -7013.69, -7085.39, -7167.56, -7188.37, -150502.47, -140521.48, -161085.16, -187500.02, 0.000, 0.000, 0.000, 23:16:29.206
150, -7007.54, -7079.47, -7161.92, -7182.53, -150496.06, -140514.66, -161078.11, -187500.02, 0.000, 0.000, 0.000, 23:16:29.213
151, -7000.39, -7072.72, -7155.46, -7175.85, -150488.86, -140507.08, -161070.38, -187500.02, 0.000, 0.000, 0.000, 23:16:29.213
152, -7004.95, -7077.12, -7159.64, -7180.16, -150492.77, -140511.44, -161075.00, -187500.02, -0.396, 0.062, 0.936, 23:16:29.214
153, -7012.86, -7084.59, -7166.89, -7187.47, -150499.78, -140518.95, -161082.92, -187500.02, 0.000, 0.000, 0.000, 23:16:29.214
154, -7007.96, -7079.89, -7162.21, -7182.76, -150494.52, -140513.39, -161077.22, -187500.02, 0.000, 0.000, 0.000, 23:16:29.214
155, -7000.03, -7072.40, -7155.06, -7175.51, -150486.67, -140505.00, -161068.61, -187500.02, 0.000, 0.000, 0.000, 23:16:29.214
156, -7002.67, -7074.82, -7157.32, -7177.90, -150488.64, -140507.23, -161071.05, -187500.02, 0.000, 0.000, 0.000, 23:16:29.215
157, -7009.44, -7081.17, -7163.31, -7184.07, -150494.48, -140513.59, -161078.02, -187500.02, 0.000, 0.000, 0.000, 23:16:29.215
158, -7008.25, -7080.16, -7162.26, -7182.89, -150492.88, -140511.83, -161076.20, -187500.02, 0.000, 0.000, 0.000, 23:16:29.215
159, -7000.28, -7072.58, -7155.04, -7175.56, -150484.88, -140503.39, -161067.48, -187500.02, 0.000, 0.000, 0.000, 23:16:29.215
160, -7001.93, -7074.26, -7156.67, -7177.28, -150486.06, -140504.72, -161069.03, -187500.02, 0.000, 0.000, 0.000, 23:16:29.215
161, -7008.81, -7080.72, -7162.86, -7183.54, -150492.03, -140511.31, -161076.05, -187500.02, 0.000, 0.000, 0.000, 23:16:29.216
162, -7007.50, -7079.33, -7161.48, -7182.13, -150490.06, -140509.50, -161074.23, -187500.02, -0.398, 0.058, 0.932, 23:16:29.216
163, -6999.52, -7071.89, -7154.17, -7174.73, -150481.97, -140500.94, -161065.28, -187500.02, 0.000, 0.000, 0.000, 23:16:29.216
164, -6998.33, -7070.77, -7153.09, -7173.61, -150480.30, -140499.31, -161063.63, -187500.02, 0.000, 0.000, 0.000, 23:16:29.216
165, -7005.98, -7077.97, -7159.96, -7180.65, -150487.00, -140506.56, -161071.36, -187500.02, 0.000, 0.000, 0.000, 23:16:29.217
166, -7007.20, -7079.00, -7160.92, -7181.77, -150487.63, -140507.38, -161072.39, -187500.02, 0.000, 0.000, 0.000, 23:16:29.217
167, -6999.76, -7071.96, -7154.12, -7174.93, -150480.14, -140499.31, -161064.14, -187500.02, 0.000, 0.000, 0.000, 23:16:29.217
168, -6997.57, -7069.90, -7152.16, -7172.85, -150477.61, -140496.58, -161061.34, -187500.02, 0.000, 0.000, 0.000, 23:16:29.217
169, -7004.50, -7076.36, -7158.41, -7179.29, -150483.58, -140503.27, -161068.28, -187500.02, 0.000, 0.000, 0.000, 23:16:29.218
170, -7007.25, -7079.04, -7160.96, -7181.84, -150485.66, -140505.72, -161071.05, -187500.02, 0.000, 0.000, 0.000, 23:16:29.218
171, -7001.15, -7073.39, -7155.40, -7176.18, -150479.42, -140499.03, -161064.08, -187500.02, 0.000, 0.000, 0.000, 23:16:29.218
172, -6997.17, -7069.57, -7151.82, -7172.54, -150475.27, -140494.50, -161059.41, -187500.02, -0.404, 0.056, 0.930, 23:16:29.218
173, -7003.78, -7075.85, -7157.94, -7178.80, -150481.14, -140500.80, -161066.03, -187500.02, 0.000, 0.000, 0.000, 23:16:29.218
174, -7007.25, -7078.98, -7160.83, -7181.75, -150483.73, -140503.86, -161069.50, -187500.02, 0.000, 0.000, 0.000, 23:16:29.219
175, -7000.92, -7073.03, -7155.06, -7175.83, -150477.23, -140497.11, -161062.50, -187500.02, 0.000, 0.000, 0.000, 23:16:29.219
176, -6997.53, -7070.08, -7152.27, -7172.88, -150473.70, -140493.27, -161058.42, -187500.02, 0.000, 0.000, 0.000, 23:16:29.220
177, -7002.09, -7074.30, -7156.29, -7177.08, -150477.50, -140497.41, -161063.00, -187500.02, 0.000, 0.000, 0.000, 23:16:29.220
178, -7008.19, -7080.09, -7161.79, -7182.76, -150482.80, -140503.22, -161069.13, -187500.02, 0.000, 0.000, 0.000, 23:16:29.221
179, -7006.76, -7078.89, -7160.65, -7181.53, -150481.03, -140501.14, -161066.91, -187500.02, 0.000, 0.000, 0.000, 23:16:29.221
180, -6999.43, -7071.80, -7153.92, -7174.66, -150473.53, -140493.16, -161058.69, -187500.02, 0.000, 0.000, 0.000, 23:16:29.223
181, -7000.43, -7072.65, -7154.64, -7175.45, -150473.81, -140493.78, -161059.47, -187500.02, -0.400, 0.062, 0.934, 23:16:29.225
182, -7009.04, -7080.88, -7162.50, -7183.45, -150481.48, -140502.06, -161068.20, -187500.02, 0.000, 0.000, 0.000, 23:16:29.226
183, -7006.33, -7078.22, -7159.98, -7180.88, -150478.42, -140498.84, -161064.97, -187500.02, 0.000, 0.000, 0.000, 23:16:29.226
184, -6998.35, -7070.77, -7152.71, -7173.43, -150470.39, -140490.39, -161056.20, -187500.02, 0.000, 0.000, 0.000, 23:16:29.227
185, -6998.29, -7070.62, -7152.58, -7173.26, -150469.81, -140489.88, -161055.83, -187500.02, 0.000, 0.000, 0.000, 23:16:29.227
186, -7004.57, -7076.34, -7158.08, -7178.89, -150475.09, -140495.81, -161062.13, -187500.02, 0.000, 0.000, 0.000, 23:16:29.227
187, -7003.65, -7075.44, -7157.10, -7177.93, -150473.56, -140494.39, -161060.72, -187500.02, 0.000, 0.000, 0.000, 23:16:29.228
188, -6997.44, -7069.61, -7151.53, -7172.23, -150467.38, -140487.50, -161053.59, -187500.02, 0.000, 0.000, 0.000, 23:16:29.228
189, -6996.99, -7069.34, -7151.31, -7171.87, -150466.50, -140486.61, -161052.83, -187500.02, 0.000, 0.000, 0.000, 23:16:29.229
190, -7004.57, -7076.50, -7158.19, -7178.82, -150473.09, -140493.97, -161060.61, -187500.02, 0.000, 0.000, 0.000, 23:16:29.229
191, -7006.56, -7078.31, -7159.91, -7180.52, -150474.31, -140495.44, -161062.22, -187500.02, -0.398, 0.060, 0.924, 23:16:29.229
192, -6999.49, -7071.76, -7153.50, -7174.10, -150467.22, -140487.84, -161054.34, -187500.02, 0.000, 0.000, 0.000, 23:16:29.229
193, -6997.12, -7069.50, -7151.42, -7172.05, -150464.61, -140484.98, -161051.48, -187500.02, 0.000, 0.000, 0.000, 23:16:29.230
194, -7004.63, -7076.58, -7158.24, -7178.98, -150471.17, -140492.13, -161059.16, -187500.02, 0.000, 0.000, 0.000, 23:16:29.230
195, -7008.55, -7080.34, -7161.90, -7182.62, -150474.42, -140495.66, -161062.80, -187500.02, 0.000, 0.000, 0.000, 23:16:29.231
196, -7004.01, -7076.25, -7158.03, -7178.51, -150469.69, -140490.61, -161057.48, -187500.02, 0.000, 0.000, 0.000, 23:16:29.231
197, -7000.12, -7072.61, -7154.55, -7174.98, -150465.61, -140486.13, -161052.94, -187500.02, 0.000, 0.000, 0.000, 23:16:29.231
198, -7005.64, -7077.86, -7159.58, -7179.98, -150470.33, -140491.33, -161058.48, -187500.02, 0.000, 0.000, 0.000, 23:16:29.231
199, -7009.04, -7080.83, -7162.35, -7182.71, -150472.81, -140494.36, -161061.69, -187500.02, 0.000, 0.000, 0.000, 23:16:29.231
200, -7002.91, -7075.06, -7156.67, -7177.12, -150466.44, -140487.59, -161054.80, -187500.02, 0.000, 0.000, 0.000, 23:16:29.232
201, -6995.11, -7067.71, -7149.50, -7169.93, -150458.58, -140479.33, -161046.25, -187500.02, -0.392, 0.054, 0.936, 23:16:29.232
202, -6999.20, -7071.51, -7153.18, -7173.73, -150461.81, -140483.03, -161050.17, -187500.02, 0.000, 0.000, 0.000, 23:16:29.232
203, -7006.51, -7078.37, -7159.87, -7180.52, -150468.14, -140489.97, -161057.48, -187500.02, 0.000, 0.000, 0.000, 23:16:29.232
204, -7001.48, -7073.43, -7155.11, -7175.63, -150462.75, -140484.28, -161051.73, -187500.02, 0.000, 0.000, 0.000, 23:16:29.233
205, -6995.85, -7068.25, -7150.10, -7170.51, -150457.09, -140478.11, -161045.31, -187500.02, 0.000, 0.000, 0.000, 23:16:29.233
206, -6998.76, -7071.06, -7152.71, -7173.14, -150459.31, -140480.58, -161048.05, -187500.02, 0.000, 0.000, 0.000, 23:16:29.233
207, -7006.42, -7078.17, -7159.58, -7180.18, -150465.95, -140487.81, -161055.69, -187500.02, 0.000, 0.000, 0.000, 23:16:29.233
208, -7003.99, -7075.82, -7157.39, -7177.82, -150463.02, -140484.83, -161052.69, -187500.02, 0.000, 0.000, 0.000, 23:16:29.233
209, -6996.12, -7068.52, -7150.23, -7170.57, -150455.16, -140476.44, -161043.94, -187500.02, 0.000, 0.000, 0.000, 23:16:29.234
210, -6996.03, -7068.54, -7150.10, -7170.46, -150454.53, -140475.95, -161043.58, -187500.02, 0.000, 0.000, 0.000, 23:16:29.234
211, -6999.92, -7071.87, -7153.21, -7173.66, -150457.34, -140479.41, -161047.42, -187500.02, -0.402, 0.060, 0.932, 23:16:29.262
212, -7000.28, -7072.18, -7153.50, -7173.95, -150457.23, -140479.23, -161047.42, -187500.02, 0.000, 0.000, 0.000, 23:16:29.262
213, -6993.59, -7066.10, -7147.62, -7167.94, -150450.53, -140472.02, -161039.89, -187500.02, 0.000, 0.000, 0.000, 23:16:29.262
214, -6991.38, -7063.93, -7145.56, -7165.83, -150447.94, -140469.33, -161037.19, -187500.02, 0.000, 0.000, 0.000, 23:16:29.263
215, -6998.69, -7070.73, -7152.02, -7172.50, -150454.11, -140476.19, -161044.36, -187500.02, 0.000, 0.000, 0.000, 23:16:29.263
216, -6999.92, -7071.80, -7152.92, -7173.48, -150454.59, -140476.81, -161045.31, -187500.02, 0.000, 0.000, 0.000, 23:16:29.263
217, -6993.59, -7065.88, -7147.33, -7167.62, -150448.17, -140469.80, -161038.08, -187500.02, 0.000, 0.000, 0.000, 23:16:29.263
218, -6991.74, -7064.22, -7145.79, -7166.01, -150446.02, -140467.50, -161035.59, -187500.02, 0.000, 0.000, 0.000, 23:16:29.264
219, -6997.59, -7069.68, -7150.86, -7171.27, -150450.91, -140472.91, -161041.41, -187500.02, 0.000, 0.000, 0.000, 23:16:29.264
220, -6998.98, -7070.77, -7151.75, -7172.16, -150451.39, -140473.80, -161042.39, -187500.02, -0.398, 0.066, 0.932, 23:16:29.265
221, -6992.70, -7064.83, -7146.10, -7166.37, -150444.94, -140466.94, -161035.22, -187500.02, 0.000, 0.000, 0.000, 23:16:29.265
222, -6992.01, -7064.42, -7145.85, -7166.10, -150443.97, -140465.75, -161033.89, -187500.02, 0.000, 0.000, 0.000, 23:16:29.265
223, -6996.54, -7068.67, -7149.85, -7170.26, -150447.55, -140469.83, -161038.33, -187500.02, 0.000, 0.000, 0.000, 23:16:29.265
224, -7001.13, -7072.94, -7153.81, -7174.35, -150451.33, -140473.88, -161042.66, -187500.02, 0.000, 0.000, 0.000, 23:16:29.265
225, -6995.78, -7067.91, -7148.85, -7169.30, -150445.70, -140467.88, -161036.53, -187500.02, 0.000, 0.000, 0.000, 23:16:29.266
226, -6989.73, -7062.28, -7143.39, -7163.80, -150439.63, -140461.36, -161029.83, -187500.02, 0.000, 0.000, 0.000, 23:16:29.266
227, -6992.77, -7064.94, -7145.99, -7166.46, -150441.81, -140463.91, -161032.69, -187500.02, 0.000, 0.000, 0.000, 23:16:29.266
228, -6996.92, -7068.67, -7149.56, -7170.04, -150445.03, -140467.77, -161036.88, -187500.02, 0.000, 0.000, 0.000, 23:16:29.266
229, -6993.48, -7065.43, -7146.37, -7166.77, -150441.25, -140463.81, -161032.89, -187500.02, 0.000, 0.000, 0.000, 23:16:29.266
230, -6989.19, -7061.63, -7142.86, -7163.11, -150437.00, -140459.11, -161027.95, -187500.02, -0.394, 0.062, 0.934, 23:16:29.267
231, -6990.15, -7062.41, -7143.64, -7163.98, -150437.38, -140459.78, -161028.83, -187500.02, 0.000, 0.000, 0.000, 23:16:29.267
232, -6998.73, -7070.53, -7151.35, -7172.03, -150444.94, -140467.95, -161037.41, -187500.02, 0.000, 0.000, 0.000, 23:16:29.267
233, -6998.58, -7070.44, -7151.26, -7171.80, -150444.27, -140467.31, -161036.63, -187500.02, 0.000, 0.000, 0.000, 23:16:29.267
234, -6989.46, -7061.85, -7142.92, -7163.29, -150435.17, -140457.78, -161026.86, -187500.02, 0.000, 0.000, 0.000, 23:16:29.267
235, -6987.24, -7059.55, -7140.64, -7160.96, -150432.52, -140455.14, -161024.39, -187500.02, 0.000, 0.000, 0.000, 23:16:29.268
236, -6993.91, -7065.74, -7146.57, -7166.97, -150438.17, -140461.36, -161030.98, -187500.02, 0.000, 0.000, 0.000, 23:16:29.268
237, -6993.84, -7065.63, -7146.48, -7166.89, -150437.50, -140460.75, -161030.61, -187500.02, 0.000, 0.000, 0.000, 23:16:29.268
238, -6986.24, -7058.48, -7139.55, -7159.80, -150429.84, -140452.59, -161022.16, -187500.02, 0.000, 0.000, 0.000, 23:16:29.268
239, -6987.07, -7059.40, -7140.58, -7160.81, -150430.34, -140453.03, -161022.61, -187500.02, 0.000, 0.000, 0.000, 23:16:29.268
240, -6993.30, -7065.21, -7146.12, -7166.46, -150435.66, -140458.89, -161028.94, -187500.02, -0.396, 0.064, 0.930, 23:16:29.673
241, -6992.43, -7064.29, -7144.98, -7165.43, -150434.14, -140457.63, -161027.89, -187500.02, 0.000, 0.000, 0.000, 23:16:29.673
242, -6987.24, -7059.53, -7140.51, -7160.83, -150428.95, -140452.05, -161022.09, -187500.02, 0.000, 0.000, 0.000, 23:16:29.673
243, -6984.25, -7056.76, -7137.85, -7158.10, -150425.78, -140448.72, -161018.72, -187500.02, 0.000, 0.000, 0.000, 23:16:29.674
244, -6990.57, -7062.64, -7143.53, -7163.89, -150431.19, -140454.92, -161025.25, -187500.02, 0.000, 0.000, 0.000, 23:16:29.674
245, -6993.32, -7065.19, -7146.05, -7166.53, -150433.30, -140457.42, -161028.16, -187500.02, 0.000, 0.000, 0.000, 23:16:29.674
246, -6988.54, -7060.83, -7141.81, -7162.19, -150428.52, -140452.23, -161022.81, -187500.02, 0.000, 0.000, 0.000, 23:16:29.675
247, -6984.05, -7056.65, -7137.81, -7158.15, -150424.02, -140447.45, -161017.92, -187500.02, 0.000, 0.000, 0.000, 23:16:29.675
248, -6991.60, -7063.75, -7144.73, -7165.28, -150430.78, -140454.64, -161025.56, -187500.02, 0.000, 0.000, 0.000, 23:16:29.675
249, -6998.58, -7070.35, -7151.17, -7171.80, -150436.88, -140461.28, -161032.47, -187500.02, 0.000, 0.000, 0.000, 23:16:29.675
250, -6992.56, -7064.72, -7145.56, -7166.17, -150430.72, -140454.83, -161025.89, -187500.02, -0.388, 0.066, 0.916, 23:16:29.675
251, -6985.05, -7057.59, -7138.79, -7159.35, -150423.23, -140446.98, -161017.98, -187500.02, 0.000, 0.000, 0.000, 23:16:29.675
252, -6989.21, -7061.52, -7142.57, -7163.17, -150426.61, -140450.78, -161022.03, -187500.02, 0.000, 0.000, 0.000, 23:16:29.675
253, -6996.61, -7068.47, -7149.34, -7169.81, -150432.98, -140457.67, -161029.16, -187500.02, 0.000, 0.000, 0.000, 23:16:29.675
254, -6990.89, -7063.04, -7144.00, -7164.36, -150427.02, -140451.47, -161022.94, -187500.02, 0.000, 0.000, 0.000, 23:16:29.676
255, -6983.78, -7056.47, -7137.65, -7158.01, -150419.91, -140444.08, -161015.28, -187500.02, 0.000, 0.000, 0.000, 23:16:29.676
0, -6988.03, -7060.63, -7141.78, -7162.15, -150423.48, -140448.03, -161019.34, -187500.02, 0.000, 0.000, 0.000, 23:16:29.676
1, -6994.87, -7066.88, -7147.82, -7168.25, -150429.17, -140454.47, -161026.19, -187500.02, 0.000, 0.000, 0.000, 23:16:29.676
2, -6992.39, -7064.49, -7145.43, -7165.83, -150426.30, -140451.36, -161023.09, -187500.02, 0.000, 0.000, 0.000, 23:16:29.677
3, -6986.80, -7059.40, -7140.53, -7160.85, -150420.84, -140445.19, -161016.70, -187500.02, -0.398, 0.066, 0.928, 23:16:29.677
4, -6986.64, -7059.22, -7140.31, -7160.52, -150420.17, -140444.50, -161016.13, -187500.02, 0.000, 0.000, 0.000, 23:16:29.677
5, -6991.33, -7063.35, -7144.18, -7164.47, -150423.64, -140448.61, -161020.58, -187500.02, 0.000, 0.000, 0.000, 23:16:29.677
6, -6990.42, -7062.39, -7143.08, -7163.51, -150421.95, -140446.98, -161018.92, -187500.02, 0.000, 0.000, 0.000, 23:16:29.677
7, -6984.79, -7057.36, -7138.19, -7158.55, -150416.23, -140440.78, -161012.39, -187500.02, 0.000, 0.000, 0.000, 23:16:29.678
8, -6982.24, -7054.77, -7135.68, -7156.00, -150413.13, -140437.55, -161009.20, -187500.02, 0.000, 0.000, 0.000, 23:16:29.678
9, -6990.15, -7062.21, -7142.83, -7163.11, -150419.91, -140444.72, -161016.63, -187500.02, 0.000, 0.000, 0.000, 23:16:29.678
10, -6991.42, -7063.24, -7143.71, -7163.96, -150420.16, -140445.23, -161017.05, -187500.02, 0.000, 0.000, 0.000, 23:16:29.678
11, -6982.33, -7054.46, -7135.06, -7155.33, -150410.73, -140435.36, -161006.92, -187500.02, 0.000, 0.000, 0.000, 23:16:29.678
12, -6979.80, -7052.11, -7132.84, -7152.94, -150407.78, -140432.14, -161003.77, -187500.02, 0.000, 0.000, 0.000, 23:16:29.679
13, -6987.02, -7058.88, -7139.28, -7159.44, -150413.88, -140438.67, -161010.61, -187500.02, -0.398, 0.066, 0.928, 23:16:29.680
14, -6989.88, -7061.54, -7141.74, -7161.86, -150415.66, -140440.86, -161012.91, -187500.02, 0.000, 0.000, 0.000, 23:16:29.688
15, -6983.11, -7055.04, -7135.50, -7155.60, -150408.84, -140433.55, -161005.38, -187500.02, 0.000, 0.000, 0.000, 23:16:29.688
16, -6979.42, -7051.55, -7132.26, -7152.40, -150405.02, -140429.44, -161001.16, -187500.02, 0.000, 0.000, 0.000, 23:16:29.689
17, -6984.79, -7056.60, -7137.09, -7157.25, -150409.44, -140434.22, -161006.22, -187500.02, 0.000, 0.000, 0.000, 23:16:29.689
18, -6989.32, -7060.74, -7140.89, -7161.25, -150412.80, -140438.08, -161010.39, -187500.02, 0.000, 0.000, 0.000, 23:16:29.690
19, -6985.79, -7057.45, -7137.74, -7157.94, -150409.00, -140433.97, -161006.11, -187500.02, 0.000, 0.000, 0.000, 23:16:29.690
20, -6978.42, -7050.43, -7131.03, -7151.02, -150401.58, -140426.14, -160998.09, -187500.02, 0.000, 0.000, 0.000, 23:16:29.690
21, -6984.05, -7055.84, -7136.24, -7156.29, -150406.38, -140431.30, -161003.52, -187500.02, 0.000, 0.000, 0.000, 23:16:29.691
22, -6994.11, -7065.59, -7145.58, -7165.72, -150415.44, -140440.86, -161013.44, -187500.02, 0.000, 0.000, 0.000, 23:16:29.691
23, -6992.83, -7064.51, -7144.62, -7164.69, -150413.75, -140438.94, -161011.59, -187500.02, -0.396, 0.066, 0.926, 23:16:29.691
24, -6983.89, -7055.93, -7136.31, -7156.36, -150404.73, -140429.50, -161001.91, -187500.02, 0.000, 0.000, 0.000, 23:16:29.691
25, -6985.34, -7057.32, -7137.60, -7157.61, -150405.63, -140430.64, -161003.13, -187500.02, 0.000, 0.000, 0.000, 23:16:29.691
26, -6994.31, -7065.77, -7145.76, -7165.86, -150413.44, -140439.02, -161011.88, -187500.02, 0.000, 0.000, 0.000, 23:16:29.692
27, -6993.41, -7065.03, -7144.91, -7165.10, -150411.95, -140437.56, -161010.41, -187500.02, 0.000, 0.000, 0.000, 23:16:29.692
28, -6985.05, -7057.14, -7137.29, -7157.45, -150403.61, -140428.78, -161001.47, -187500.02, 0.000, 0.000, 0.000, 23:16:29.692
29, -6986.15, -7058.17, -7138.39, -7158.50, -150404.14, -140429.33, -161002.16, -187500.02, 0.000, 0.000, 0.000, 23:16:29.692
30, -6993.10, -7064.51, -7144.47, -7164.65, -150409.83, -140435.63, -161008.70, -187500.02, 0.000, 0.000, 0.000, 23:16:29.692
31, -6993.46, -7064.76, -7144.60, -7164.78, -150409.52, -140435.38, -161008.53, -187500.02, 0.000, 0.000, 0.000, 23:16:29.693
32, -6985.86, -7057.70, -7137.83, -7158.01, -150402.02, -140427.38, -161000.34, -187500.02, 0.000, 0.000, 0.000, 23:16:29.693
33, -6981.95, -7053.94, -7134.07, -7154.32, -150397.78, -140423.06, -160996.17, -187500.02, -0.402, 0.064, 0.934, 23:16:29.693
34, -6988.29, -7059.75, -7139.55, -7159.91, -150402.89, -140428.77, -161002.11, -187500.02, 0.000, 0.000, 0.000, 23:16:29.693
35, -6990.11, -7061.27, -7140.96, -7161.34, -150403.81, -140430.00, -161003.41, -187500.02, 0.000, 0.000, 0.000, 23:16:29.693
36, -6987.13, -7058.66, -7138.68, -7159.02, -150400.88, -140426.53, -160999.91, -187500.02, 0.000, 0.000, 0.000, 23:16:29.694
37, -6985.12, -7056.94, -7137.05, -7157.39, -150398.64, -140424.19, -160997.58, -187500.02, 0.000, 0.000, 0.000, 23:16:29.694
38, -6988.50, -7059.93, -7139.71, -7160.09, -150400.95, -140426.97, -161000.59, -187500.02, 0.000, 0.000, 0.000, 23:16:29.694
39, -6990.64, -7061.79, -7141.36, -7161.74, -150402.16, -140428.42, -161002.30, -187500.02, 0.000, 0.000, 0.000, 23:16:29.694
40, -6985.93, -7057.45, -7137.27, -7157.63, -150397.33, -140423.25, -160997.02, -187500.02, 0.000, 0.000, 0.000, 23:16:29.694
41, -6981.03, -7052.89, -7133.09, -7153.27, -150392.39, -140418.08, -160991.70, -187500.02, 0.000, 0.000, 0.000, 23:16:29.695
42, -6984.20, -7055.86, -7135.79, -7156.09, -150394.73, -140420.94, -160994.78, -187500.02, -0.398, 0.068, 0.936, 23:16:29.695
43, -6989.14, -7060.29, -7139.91, -7160.36, -150398.42, -140425.17, -160999.28, -187500.02, 0.000, 0.000, 0.000, 23:16:29.695
44, -6986.73, -7058.03, -7137.85, -7158.19, -150395.73, -140422.13, -160996.23, -187500.02, 0.000, 0.000, 0.000, 23:16:29.695
45, -6982.37, -7054.12, -7134.19, -7154.59, -150391.52, -140417.50, -160991.47, -187500.02, 0.000, 0.000, 0.000, 23:16:29.699
46, -6984.81, -7056.33, -7136.22, -7156.74, -150393.19, -140419.48, -160993.70, -187500.02, 0.000, 0.000, 0.000, 23:16:29.699
47, -6990.89, -7061.88, -7141.47, -7162.01, -150397.95, -140424.86, -160999.34, -187500.02, 0.000, 0.000, 0.000, 23:16:29.699
48, -6987.58, -7058.73, -7138.36, -7158.97, -150394.28, -140420.94, -160995.55, -187500.02, 0.000, 0.000, 0.000, 23:16:29.700
49, -6979.87, -7051.62, -7131.50, -7152.09, -150386.73, -140413.00, -160987.34, -187500.02, 0.000, 0.000, 0.000, 23:16:29.700
50, -6982.06, -7053.65, -7133.45, -7154.03, -150388.16, -140414.69, -160989.31, -187500.02, 0.000, 0.000, 0.000, 23:16:29.701
51, -6988.36, -7059.35, -7138.88, -7159.53, -150393.23, -140420.38, -160995.25, -187500.02, 0.000, 0.000, 0.000, 23:16:29.701
52, -6985.77, -7056.83, -7136.33, -7157.01, -150390.16, -140417.19, -160992.17, -187500.02, -0.396, 0.068, 0.932, 23:16:29.701
53, -6980.81, -7052.44, -7132.20, -7152.83, -150385.38, -140411.84, -160986.73, -187500.02, 0.000, 0.000, 0.000, 23:16:29.701
54, -6981.66, -7053.29, -7133.04, -7153.77, -150385.66, -140412.38, -160987.23, -187500.02, 0.000, 0.000, 0.000, 23:16:29.701
55, -6988.99, -7059.95, -7139.48, -7160.16, -150391.52, -140418.92, -160994.09, -187500.02, 0.000, 0.000, 0.000, 23:16:29.701
56, -6990.73, -7061.54, -7141.00, -7161.70, -150392.61, -140420.06, -160995.34, -187500.02, 0.000, 0.000, 0.000, 23:16:29.701
57, -6982.98, -7054.43, -7134.19, -7154.82, -150385.08, -140412.11, -160987.14, -187500.02, 0.000, 0.000, 0.000, 23:16:29.702
58, -6981.05, -7052.76, -7132.53, -7153.21, -150382.78, -140409.91, -160984.95, -187500.02, 0.000, 0.000, 0.000, 23:16:29.702
59, -6987.60, -7058.68, -7138.16, -7158.82, -150387.98, -140415.64, -160990.98, -187500.02, 0.000, 0.000, 0.000, 23:16:29.702
60, -6990.87, -7061.61, -7140.98, -7161.52, -150390.41, -140418.14, -160993.63, -187500.02, 0.000, 0.000, 0.000, 23:16:29.702
61, -6984.05, -7055.37, -7134.94, -7155.44, -150383.77, -140411.11, -160986.44, -187500.02, 0.000, 0.000, 0.000, 23:16:29.702
62, -6981.46, -7053.03, -7132.82, -7153.30, -150380.94, -140408.22, -160983.47, -187500.02, -0.398, 0.058, 0.942, 23:16:29.703
63, -6987.87, -7058.84, -7138.45, -7158.88, -150386.02, -140413.78, -160989.47, -187500.02, 0.000, 0.000, 0.000, 23:16:29.703
64, -6996.25, -7066.88, -7146.19, -7166.68, -150393.27, -140421.34, -160997.27, -187500.02, 0.000, 0.000, 0.000, 23:16:29.703
65, -6989.99, -7061.16, -7140.64, -7161.19, -150387.14, -140414.80, -160990.61, -187500.02, 0.000, 0.000, 0.000, 23:16:29.703
66, -6982.95, -7054.57, -7134.27, -7154.77, -150380.05, -140407.48, -160983.20, -187500.02, 0.000, 0.000, 0.000, 23:16:29.704
67, -6986.31, -7057.45, -7136.91, -7157.52, -150382.22, -140410.22, -160986.06, -187500.02, 0.000, 0.000, 0.000, 23:16:29.704
68, -6992.34, -7062.95, -7141.99, -7162.64, -150386.88, -140415.31, -160991.36, -187500.02, 0.000, 0.000, 0.000, 23:16:29.704
69, -6988.85, -7059.78, -7139.06, -7159.76, -150383.25, -140411.42, -160987.41, -187500.02, 0.000, 0.000, 0.000, 23:16:29.704
70, -6983.78, -7055.24, -7134.86, -7155.51, -150378.42, -140406.19, -160982.16, -187500.02, 0.000, 0.000, 0.000, 23:16:29.704
71, -6987.58, -7058.59, -7138.01, -7158.68, -150381.06, -140409.16, -160985.34, -187500.02, -0.396, 0.058, 0.936, 23:16:29.705
72, -6994.13, -7064.63, -7143.55, -7164.27, -150386.08, -140414.72, -160991.16, -187500.02, 0.000, 0.000, 0.000, 23:16:29.705
73, -6991.27, -7062.08, -7141.20, -7161.81, -150383.02, -140411.52, -160987.86, -187500.02, 0.000, 0.000, 0.000, 23:16:29.705
74, -6984.41, -7055.80, -7135.35, -7155.91, -150376.63, -140404.64, -160980.77, -187500.02, 0.000, 0.000, 0.000, 23:16:29.705
75, -6987.87, -7059.13, -7138.52, -7159.06, -150379.38, -140407.63, -160983.77, -187500.02, 0.000, 0.000, 0.000, 23:16:29.707
76, -6995.27, -7065.79, -7144.69, -7165.25, -150384.98, -140413.77, -160990.27, -187500.02, 0.000, 0.000, 0.000, 23:16:29.707
77, -6993.35, -7063.84, -7142.72, -7163.31, -150382.38, -140411.06, -160987.73, -187500.02, 0.000, 0.000, 0.000, 23:16:29.707
78, -6986.28, -7057.47, -7136.84, -7157.30, -150375.78, -140404.02, -160980.55, -187500.02, 0.000, 0.000, 0.000, 23:16:29.708
79, -6985.30, -7056.49, -7135.93, -7156.34, -150374.31, -140402.56, -160979.25, -187500.02, 0.000, 0.000, 0.000, 23:16:29.708
80, -6988.97, -7059.49, -7138.32, -7158.84, -150376.20, -140405.03, -160981.95, -187500.02, 0.000, 0.000, 0.000, 23:16:29.708
81, -6989.21, -7059.55, -7138.30, -7158.84, -150375.52, -140404.47, -160981.50, -187500.02, -0.396, 0.066, 0.930, 23:16:29.708
82, -6983.60, -7054.70, -7133.87, -7154.32, -150370.44, -140398.92, -160975.84, -187500.02, 0.000, 0.000, 0.000, 23:16:29.708
83, -6982.01, -7053.34, -7132.62, -7153.14, -150368.78, -140397.20, -160974.13, -187500.02, 0.000, 0.000, 0.000, 23:16:29.709
84, -6989.90, -7060.45, -7139.35, -7159.73, -150374.95, -140403.94, -160981.03, -187500.02, 0.000, 0.000, 0.000, 23:16:29.709
85, -6993.59, -7063.84, -7142.48, -7162.86, -150377.38, -140406.66, -160983.78, -187500.02, 0.000, 0.000, 0.000, 23:16:29.709
86, -6985.86, -7056.80, -7135.93, -7156.16, -150370.13, -140399.03, -160976.13, -187500.02, 0.000, 0.000, 0.000, 23:16:29.709
87, -6983.13, -7054.41, -7133.83, -7154.06, -150367.53, -140396.23, -160973.44, -187500.02, 0.000, 0.000, 0.000, 23:16:29.709
88, -6990.06, -7060.63, -7139.64, -7159.89, -150372.72, -140401.89, -160979.30, -187500.02, 0.000, 0.000, 0.000, 23:16:29.709
89, -6995.13, -7065.07, -7143.75, -7163.87, -150376.03, -140405.70, -160983.11, -187500.02, 0.000, 0.000, 0.000, 23:16:29.710
90, -6987.58, -7057.92, -7137.11, -7157.14, -150368.92, -140398.09, -160975.48, -187500.02, 0.000, 0.000, 0.000, 23:16:29.710
91, -6981.90, -7053.03, -7132.58, -7152.60, -150363.83, -140392.63, -160970.11, -187500.02, -0.404, 0.064, 0.924, 23:16:29.710
92, -6986.84, -7057.38, -7136.51, -7156.72, -150367.17, -140396.38, -160974.08, -187500.02, 0.000, 0.000, 0.000, 23:16:29.710
93, -6995.56, -7065.36, -7143.93, -7164.07, -150373.91, -140403.63, -160981.44, -187500.02, 0.000, 0.000, 0.000, 23:16:29.711
94, -6988.79, -7059.08, -7138.05, -7158.01, -150367.38, -140396.80, -160974.69, -187500.02, 0.000, 0.000, 0.000, 23:16:29.711
95, -6983.85, -7054.72, -7134.39, -7154.37, -150363.33, -140392.28, -160970.11, -187500.02, 0.000, 0.000, 0.000, 23:16:29.711
96, -6988.76, -7059.26, -7138.54, -7158.68, -150367.02, -140396.17, -160974.27, -187500.02, 0.000, 0.000, 0.000, 23:16:29.711
97, -6998.53, -7068.25, -7146.90, -7166.91, -150374.63, -140404.36, -160982.53, -187500.02, 0.000, 0.000, 0.000, 23:16:29.711
98, -6996.12, -7066.08, -7144.89, -7164.78, -150372.05, -140401.72, -160979.77, -187500.02, 0.000, 0.000, 0.000, 23:16:29.711
99, -6984.32, -7055.31, -7134.77, -7154.59, -150361.44, -140390.66, -160968.63, -187500.02, 0.000, 0.000, 0.000, 23:16:29.712
100, -6984.03, -7054.84, -7134.10, -7153.99, -150360.30, -140389.73, -160967.89, -187500.02, 0.000, 0.000, 0.000, 23:16:29.712
101, -6994.13, -7063.93, -7142.54, -7162.37, -150367.98, -140397.94, -160976.34, -187500.02, -0.400, 0.062, 0.924, 23:16:29.712
102, -6993.84, -7063.75, -7142.37, -7162.04, -150367.06, -140397.09, -160975.52, -187500.02, 0.000, 0.000, 0.000, 23:16:29.712
103, -6983.49, -7054.30, -7133.65, -7153.36, -150357.97, -140387.48, -160965.95, -187500.02, 0.000, 0.000, 0.000, 23:16:29.712
104, -6982.68, -7053.52, -7132.98, -7152.76, -150356.80, -140386.41, -160964.83, -187500.02, 0.000, 0.000, 0.000, 23:16:30.156
105, -6994.60, -7064.40, -7143.15, -7162.82, -150366.22, -140396.38, -160974.95, -187500.02, 0.000, 0.000, 0.000, 23:16:30.157
106, -6996.90, -7066.48, -7145.07, -7164.72, -150367.48, -140397.69, -160976.44, -187500.02, 0.000, 0.000, 0.000, 23:16:30.157
107, -6985.64, -7056.13, -7135.44, -7155.11, -150357.50, -140387.30, -160965.97, -187500.02, 0.000, 0.000, 0.000, 23:16:30.157
108, -6984.20, -7055.08, -7134.54, -7154.23, -150356.20, -140385.92, -160964.70, -187500.02, 0.000, 0.000, 0.000, 23:16:30.158
109, -6994.37, -7064.38, -7143.19, -7162.77, -150364.00, -140394.30, -160973.19, -187500.02, 0.000, 0.000, 0.000, 23:16:30.158
110, -6997.82, -7067.42, -7145.85, -7165.43, -150365.91, -140396.47, -160975.30, -187500.02, -0.396, 0.062, 0.928, 23:16:30.158
111, -6986.57, -7056.94, -7135.95, -7155.71, -150355.58, -140385.80, -160964.72, -187500.02, 0.000, 0.000, 0.000, 23:16:30.158
112, -6980.56, -7051.48, -7130.94, -7150.73, -150350.19, -140380.22, -160959.25, -187500.02, 0.000, 0.000, 0.000, 23:16:30.158
113, -6986.17, -7056.49, -7135.41, -7155.11, -150353.94, -140384.42, -160963.48, -187500.02, 0.000, 0.000, 0.000, 23:16:30.158
114, -6992.09, -7061.63, -7140.06, -7159.64, -150357.91, -140388.70, -160967.89, -187500.02, 0.000, 0.000, 0.000, 23:16:30.159
115, -6985.41, -7055.57, -7134.48, -7154.08, -150351.89, -140382.41, -160961.61, -187500.02, 0.000, 0.000, 0.000, 23:16:30.159
116, -6980.38, -7051.28, -7130.70, -7150.30, -150347.75, -140378.00, -160957.30, -187500.02, 0.000, 0.000, 0.000, 23:16:30.159
117, -6986.51, -7056.87, -7135.82, -7155.40, -150352.20, -140382.81, -160962.22, -187500.02, 0.000, 0.000, 0.000, 23:16:30.159
118, -6993.61, -7063.17, -7141.52, -7160.98, -150356.98, -140388.22, -160967.56, -187500.02, 0.000, 0.000, 0.000, 23:16:30.159
119, -6987.74, -7057.81, -7136.53, -7155.98, -150351.48, -140382.52, -160962.03, -187500.02, 0.000, 0.000, 0.000, 23:16:30.159
120, -6977.95, -7049.00, -7128.35, -7147.82, -150342.95, -140373.67, -160953.16, -187500.02, -0.396, 0.070, 0.930, 23:16:30.160
121, -6983.71, -7054.48, -7133.58, -7153.09, -150347.59, -140378.36, -160958.06, -187500.02, 0.000, 0.000, 0.000, 23:16:30.160
122, -6993.84, -7063.60, -7142.10, -7161.54, -150355.19, -140386.52, -160966.33, -187500.02, 0.000, 0.000, 0.000, 23:16:30.160
123, -6989.44, -7059.46, -7138.01, -7157.41, -150350.48, -140381.94, -160961.66, -187500.02, 0.000, 0.000, 0.000, 23:16:30.161
124, -6979.85, -7050.79, -7130.00, -7149.41, -150342.16, -140373.06, -160952.94, -187500.02, 0.000, 0.000, 0.000, 23:16:30.161
125, -6983.47, -7054.25, -7133.36, -7152.85, -150345.03, -140376.08, -160956.06, -187500.02, 0.000, 0.000, 0.000, 23:16:30.161
126, -6993.61, -7063.42, -7141.76, -7161.30, -150352.83, -140384.33, -160964.31, -187500.02, 0.000, 0.000, 0.000, 23:16:30.161
127, -6992.54, -7062.35, -7140.76, -7160.18, -150351.08, -140382.72, -160962.78, -187500.02, 0.000, 0.000, 0.000, 23:16:30.161
128, -6982.26, -7053.00, -7132.02, -7151.57, -150342.00, -140373.17, -160953.34, -187500.02, 0.000, 0.000, 0.000, 23:16:30.162
129, -6983.15, -7053.96, -7133.13, -7152.71, -150342.56, -140373.83, -160953.98, -187500.02, 0.000, 0.000, 0.000, 23:16:30.162
130, -6996.14, -7066.08, -7144.53, -7164.16, -150353.31, -140385.25, -160965.39, -187500.02, -0.410, 0.058, 0.936, 23:16:30.162
131, -6999.58, -7069.21, -7147.46, -7167.09, -150355.69, -140387.75, -160968.03, -187500.02, 0.000, 0.000, 0.000, 23:16:30.163
132, -6987.04, -7057.47, -7136.46, -7156.07, -150344.17, -140375.80, -160956.19, -187500.02, 0.000, 0.000, 0.000, 23:16:30.163
133, -6979.29, -7050.21, -7129.45, -7149.03, -150336.64, -140368.03, -160948.64, -187500.02, 0.000, 0.000, 0.000, 23:16:30.163
134, -6989.41, -7059.66, -7138.21, -7157.88, -150344.84, -140376.81, -160957.41, -187500.02, 0.000, 0.000, 0.000, 23:16:30.163
135, -6996.41, -7066.21, -7144.38, -7164.11, -150350.48, -140382.73, -160963.25, -187500.02, 0.000, 0.000, 0.000, 23:16:30.165
136, -6985.77, -7056.24, -7134.99, -7154.68, -150340.52, -140372.44, -160953.16, -187500.02, 0.000, 0.000, 0.000, 23:16:30.167
137, -6980.32, -7051.33, -7130.50, -7150.21, -150335.45, -140367.13, -160947.98, -187500.02, 0.000, 0.000, 0.000, 23:16:30.170
138, -6988.59, -7059.04, -7137.78, -7157.56, -150342.23, -140374.36, -160955.16, -187500.02, 0.000, 0.000, 0.000, 23:16:30.170
139, -6996.61, -7066.46, -7144.76, -7164.54, -150348.64, -140381.22, -160962.13, -187500.02, 0.000, 0.000, 0.000, 23:16:30.170
140, -6988.41, -7058.77, -7137.49, -7157.21, -150340.80, -140373.13, -160954.22, -187500.02, -0.394, 0.058, 0.926, 23:16:30.170
141, -6978.86, -7050.01, -7129.29, -7148.83, -150331.95, -140363.91, -160945.20, -187500.02, 0.000, 0.000, 0.000, 23:16:30.171
142, -6985.75, -7056.47, -7135.48, -7155.08, -150337.58, -140369.91, -160951.23, -187500.02, 0.000, 0.000, 0.000, 23:16:30.171
143, -6995.65, -7065.61, -7144.13, -7163.87, -150345.73, -140378.77, -160959.88, -187500.02, 0.000, 0.000, 0.000, 23:16:30.171
144, -6991.16, -7061.54, -7140.26, -7160.02, -150341.34, -140374.19, -160955.39, -187500.02, 0.000, 0.000, 0.000, 23:16:30.171
145, -6979.38, -7050.43, -7129.92, -7149.52, -150330.30, -140362.52, -160944.09, -187500.02, 0.000, 0.000, 0.000, 23:16:30.171
146, -6984.45, -7055.26, -7134.50, -7154.15, -150334.41, -140366.88, -160948.48, -187500.02, 0.000, 0.000, 0.000, 23:16:30.171
147, -6995.87, -7065.97, -7144.60, -7164.38, -150344.06, -140377.31, -160958.86, -187500.02, 0.000, 0.000, 0.000, 23:16:30.172
148, -6991.87, -7062.12, -7140.87, -7160.58, -150339.66, -140372.91, -160954.55, -187500.02, 0.000, 0.000, 0.000, 23:16:30.172
149, -6977.79, -7048.80, -7128.08, -7147.57, -150326.27, -140358.92, -160940.75, -187500.02, -0.394, 0.058, 0.918, 23:16:30.173
150, -6976.25, -7047.19, -7126.43, -7145.99, -150324.22, -140356.92, -160938.75, -187500.02, 0.000, 0.000, 0.000, 23:16:30.173
151, -6988.07, -7058.32, -7137.00, -7156.72, -150334.31, -140367.81, -160949.63, -187500.02, 0.000, 0.000, 0.000, 23:16:30.173
152, -6991.09, -7061.27, -7139.91, -7159.69, -150336.64, -140370.34, -160952.31, -187500.02, 0.000, 0.000, 0.000, 23:16:30.173
153, -6978.97, -7050.05, -7129.29, -7148.85, -150325.31, -140358.36, -160940.41, -187500.02, 0.000, 0.000, 0.000, 23:16:30.173
154, -6977.52, -7048.71, -7128.10, -7147.57, -150323.50, -140356.34, -160938.56, -187500.02, 0.000, 0.000, 0.000, 23:16:30.173
155, -6987.69, -7058.12, -7137.02, -7156.63, -150331.95, -140365.67, -160947.94, -187500.02, 0.000, 0.000, 0.000, 23:16:30.173
156, -6990.13, -7060.38, -7139.01, -7158.70, -150333.41, -140367.55, -160949.83, -187500.02, 0.000, 0.000, 0.000, 23:16:30.173
157, -6979.94, -7050.83, -7129.96, -7149.50, -150323.77, -140357.22, -160939.73, -187500.02, 0.000, 0.000, 0.000, 23:16:30.173
158, -6975.13, -7046.30, -7125.71, -7145.07, -150319.03, -140352.13, -160934.72, -187500.02, 0.000, 0.000, 0.000, 23:16:30.173
159, -6985.84, -7056.49, -7135.37, -7154.95, -150328.27, -140362.20, -160944.84, -187500.02, -0.394, 0.066, 0.926, 23:16:30.173
160, -6993.61, -7063.80, -7142.43, -7162.21, -150334.83, -140369.20, -160951.98, -187500.02, 0.000, 0.000, 0.000, 23:16:30.174
161, -6983.85, -7054.63, -7133.69, -7153.21, -150325.44, -140359.23, -160942.17, -187500.02, 0.000, 0.000, 0.000, 23:16:30.174
162, -6976.00, -7047.28, -7126.61, -7146.01, -150317.83, -140351.11, -160934.19, -187500.02, 0.000, 0.000, 0.000, 23:16:30.174
163, -6984.34, -7055.15, -7134.14, -7153.65, -150324.95, -140358.92, -160941.97, -187500.02, 0.000, 0.000, 0.000, 23:16:30.174
164, -6994.33, -7064.58, -7143.21, -7162.97, -150333.67, -140368.38, -160951.44, -187500.02, 0.000, 0.000, 0.000, 23:16:30.174
165, -6987.40, -7058.21, -7137.16, -7156.65, -150326.97, -140361.17, -160944.41, -187500.02, 0.000, 0.000, 0.000, 23:16:30.175
166, -6977.28, -7048.64, -7128.13, -7147.35, -150317.06, -140350.72, -160934.09, -187500.02, 0.000, 0.000, 0.000, 23:16:30.175
167, -6982.73, -7053.79, -7133.04, -7152.40, -150321.72, -140355.78, -160939.23, -187500.02, 0.000, 0.000, 0.000, 23:16:30.175
168, -6994.40, -7064.85, -7143.66, -7163.33, -150332.19, -140367.14, -160950.64, -187500.02, 0.000, 0.000, 0.000, 23:16:30.175
169, -6989.14, -7059.93, -7138.86, -7158.53, -150326.72, -140361.39, -160945.00, -187500.02, -0.392, 0.056, 0.938, 23:16:30.175
170, -6978.91, -7050.34, -7129.94, -7149.18, -150316.69, -140350.58, -160934.39, -187500.02, 0.000, 0.000, 0.000, 23:16:30.176
171, -6981.77, -7053.09, -7132.55, -7151.89, -150318.94, -140353.11, -160937.00, -187500.02, 0.000, 0.000, 0.000, 23:16:30.176
172, -6992.79, -7063.60, -7142.52, -7162.21, -150328.89, -140363.94, -160947.91, -187500.02, 0.000, 0.000, 0.000, 23:16:30.176
173, -6990.75, -7061.65, -7140.58, -7160.31, -150326.50, -140361.48, -160945.55, -187500.02, 0.000, 0.000, 0.000, 23:16:30.176
174, -6976.92, -7048.31, -7127.79, -7147.13, -150312.69, -140346.80, -160930.97, -187500.02, 0.000, 0.000, 0.000, 23:16:30.176
175, -6974.12, -7045.47, -7125.00, -7144.38, -150309.42, -140343.56, -160927.80, -187500.02, 0.000, 0.000, 0.000, 23:16:30.176
176, -6985.12, -7056.04, -7135.10, -7154.86, -150319.55, -140354.67, -160938.95, -187500.02, 0.000, 0.000, 0.000, 23:16:30.177
177, -6986.86, -7057.79, -7136.73, -7156.58, -150320.66, -140356.09, -160940.48, -187500.02, 0.000, 0.000, 0.000, 23:16:30.177
178, -6976.87, -7048.15, -7127.66, -7147.10, -150310.36, -140345.02, -160929.42, -187500.02, -0.394, 0.056, 0.940, 23:16:30.177
179, -6974.12, -7045.58, -7125.22, -7144.49, -150307.20, -140341.72, -160926.16, -187500.02, 0.000, 0.000, 0.000, 23:16:30.177
180, -6985.12, -7056.20, -7135.35, -7154.95, -150317.52, -140352.92, -160937.53, -187500.02, 0.000, 0.000, 0.000, 23:16:30.177
181, -6988.32, -7059.17, -7138.16, -7157.97, -150320.03, -140355.92, -160940.63, -187500.02, 0.000, 0.000, 0.000, 23:16:30.177
182, -6976.31, -7047.62, -7126.99, -7146.37, -150307.63, -140342.67, -160927.45, -187500.02, 0.000, 0.000, 0.000, 23:16:30.177
183, -6971.98, -7043.62, -7123.21, -7142.37, -150302.92, -140337.48, -160922.45, -187500.02, 0.000, 0.000, 0.000, 23:16:30.178
184, -6982.24, -7053.54, -7132.87, -7152.38, -150312.66, -140348.16, -160933.30, -187500.02, 0.000, 0.000, 0.000, 23:16:30.178
185, -6987.36, -7058.32, -7137.54, -7157.30, -150317.23, -140353.50, -160938.77, -187500.02, 0.000, 0.000, 0.000, 23:16:30.178
186, -6977.05, -7048.49, -7127.79, -7147.39, -150306.56, -140342.08, -160927.38, -187500.02, 0.000, 0.000, 0.000, 23:16:30.178
187, -6967.71, -7039.39, -7118.99, -7138.16, -150296.70, -140331.53, -160916.78, -187500.02, 0.000, 0.000, 0.000, 23:16:30.178
188, -6973.32, -7044.67, -7124.10, -7143.68, -150301.89, -140337.56, -160922.92, -187500.02, -0.398, 0.056, 0.932, 23:16:30.178
189, -6984.16, -7055.13, -7134.36, -7154.50, -150312.19, -140349.11, -160934.66, -187500.02, 0.000, 0.000, 0.000, 23:16:30.178
190, -6979.06, -7050.28, -7129.74, -7149.58, -150306.47, -140342.75, -160928.47, -187500.02, 0.000, 0.000, 0.000, 23:16:30.179
191, -6971.44, -7043.06, -7122.76, -7142.03, -150298.31, -140333.44, -160919.08, -187500.02, 0.000, 0.000, 0.000, 23:16:30.179
192, -6976.27, -7047.71, -7127.35, -7146.90, -150302.83, -140338.63, -160924.48, -187500.02, 0.000, 0.000, 0.000, 23:16:30.179
193, -6986.28, -7057.36, -7136.80, -7157.05, -150312.80, -140349.89, -160936.08, -187500.02, 0.000, 0.000, 0.000, 23:16:30.179
194, -6982.39, -7053.70, -7133.16, -7153.14, -150308.28, -140344.94, -160931.27, -187500.02, 0.000, 0.000, 0.000, 23:16:30.179
195, -6975.00, -7046.74, -7126.36, -7145.67, -150299.88, -140335.36, -160921.41, -187500.02, 0.000, 0.000, 0.000, 23:16:30.181
196, -6978.77, -7050.48, -7129.96, -7149.45, -150303.23, -140339.14, -160925.31, -187500.02, 0.000, 0.000, 0.000, 23:16:30.181
197, -6988.63, -7059.84, -7139.19, -7159.46, -150313.16, -140350.72, -160937.27, -187500.02, 0.000, 0.000, 0.000, 23:16:30.182
198, -6985.26, -7056.56, -7136.02, -7156.09, -150309.23, -140346.73, -160933.41, -187500.02, -0.398, 0.064, 0.926, 23:16:30.182
199, -6975.02, -7046.72, -7126.38, -7145.67, -150297.69, -140333.70, -160920.13, -187500.02, 0.000, 0.000, 0.000, 23:16:30.183
200, -6974.68, -7046.32, -7126.12, -7145.45, -150296.83, -140332.86, -160919.39, -187500.02, 0.000, 0.000, 0.000, 23:16:30.183
201, -6983.13, -7054.48, -7134.10, -7154.26, -150305.55, -140343.33, -160930.45, -187500.02, 0.000, 0.000, 0.000, 23:16:30.183
202, -6985.90, -7057.25, -7136.80, -7157.12, -150308.13, -140346.38, -160933.52, -187500.02, 0.000, 0.000, 0.000, 23:16:30.183
203, -6976.90, -7048.40, -7128.22, -7147.64, -150297.59, -140334.23, -160921.05, -187500.02, 0.000, 0.000, 0.000, 23:16:30.183
204, -6974.62, -7046.19, -7126.05, -7145.25, -150294.42, -140330.66, -160917.41, -187500.02, 0.000, 0.000, 0.000, 23:16:30.183
205, -6984.18, -7055.69, -7135.28, -7155.49, -150304.61, -140342.52, -160930.00, -187500.02, 0.000, 0.000, 0.000, 23:16:30.184
206, -6991.22, -7062.61, -7142.08, -7162.71, -150311.66, -140350.44, -160938.34, -187500.02, 0.000, 0.000, 0.000, 23:16:30.184
207, -6979.04, -7050.43, -7130.12, -7149.92, -150297.53, -140334.89, -160922.31, -187500.02, 0.000, 0.000, 0.000, 23:16:30.184
208, -6971.02, -7042.52, -7122.38, -7141.63, -150288.25, -140324.66, -160911.70, -187500.02, -0.402, 0.062, 0.932, 23:16:30.184
209, -6977.90, -7049.29, -7129.07, -7149.14, -150296.00, -140334.06, -160922.05, -187500.02, 0.000, 0.000, 0.000, 23:16:30.184
210, -6985.19, -7056.58, -7136.17, -7157.07, -150303.86, -140343.52, -160932.23, -187500.02, 0.000, 0.000, 0.000, 23:16:30.184
211, -6977.37, -7048.87, -7128.46, -7148.60, -150294.17, -140332.34, -160920.58, -187500.02, 0.000, 0.000, 0.000, 23:16:30.184
212, -6967.26, -7038.81, -7118.49, -7137.78, -150282.22, -140318.81, -160906.48, -187500.02, 0.000, 0.000, 0.000, 23:16:30.184
213, -6972.07, -7043.53, -7123.19, -7143.30, -150287.88, -140326.08, -160914.63, -187500.02, 0.000, 0.000, 0.000, 23:16:30.184
214, -6983.44, -7055.04, -7134.65, -7155.73, -150300.59, -140341.03, -160930.70, -187500.02, 0.000, 0.000, 0.000, 23:16:30.184
215, -6977.41, -7048.91, -7128.62, -7149.05, -150292.72, -140332.09, -160921.13, -187500.02, 0.000, 0.000, 0.000, 23:16:30.184
216, -6964.18, -7035.59, -7115.34, -7134.81, -150276.92, -140314.14, -160902.02, -187500.02, 0.000, 0.000, 0.000, 23:16:30.185
217, -6970.21, -7041.65, -7121.40, -7141.49, -150283.67, -140322.28, -160911.00, -187500.02, -0.398, 0.058, 0.926, 23:16:30.185
218, -6982.10, -7053.74, -7133.45, -7154.84, -150297.59, -140339.17, -160930.00, -187500.02, 0.000, 0.000, 0.000, 23:16:30.185
219, -6976.56, -7048.13, -7127.84, -7148.83, -150290.67, -140331.58, -160922.14, -187500.02, 0.000, 0.000, 0.000, 23:16:30.185
220, -6966.12, -7037.60, -7117.33, -7136.87, -150276.89, -140314.81, -160903.55, -187500.02, 0.000, 0.000, 0.000, 23:16:30.185
221, -6968.89, -7040.42, -7120.13, -7140.04, -150279.83, -140318.53, -160908.13, -187500.02, 0.000, 0.000, 0.000, 23:16:30.186
222, -6978.66, -7050.48, -7130.23, -7151.37, -150292.05, -140334.22, -160926.61, -187500.02, 0.000, 0.000, 0.000, 23:16:30.186
223, -6967.53, -7039.44, -7119.05, -7139.06, -150277.70, -140316.78, -160906.42, -187500.02, 0.000, 0.000, 0.000, 23:16:30.186
224, -6960.67, -7032.26, -7111.72, -7130.81, -150267.91, -140304.63, -160892.56, -187500.02, 0.000, 0.000, 0.000, 23:16:30.637
225, -6961.14, -7032.66, -7112.19, -7131.39, -150268.20, -140305.41, -160893.97, -187500.02, 0.000, 0.000, 0.000, 23:16:30.638
226, -6957.16, -7028.98, -7108.55, -7127.75, -150263.95, -140301.30, -160889.77, -187500.02, 0.000, 0.000, 0.000, 23:16:30.639
227, -6958.86, -7030.65, -7110.27, -7129.40, -150265.13, -140302.50, -160891.09, -187500.02, -0.410, -0.036, 0.958, 23:16:30.639
228, -6963.04, -7034.54, -7114.14, -7133.34, -150268.63, -140306.39, -160895.47, -187500.02, 0.000, 0.000, 0.000, 23:16:30.639
229, -6962.72, -7034.23, -7113.73, -7133.02, -150267.94, -140305.89, -160895.36, -187500.02, 0.000, 0.000, 0.000, 23:16:30.639
230, -6957.09, -7028.82, -7108.41, -7127.68, -150261.92, -140299.81, -160888.91, -187500.02, 0.000, 0.000, 0.000, 23:16:30.640
231, -6955.84, -7027.70, -7107.36, -7126.61, -150260.16, -140298.00, -160886.83, -187500.02, 0.000, 0.000, 0.000, 23:16:30.640
232, -6960.74, -7032.44, -7112.12, -7131.19, -150264.42, -140302.41, -160891.58, -187500.02, 0.000, 0.000, 0.000, 23:16:30.640
233, -6962.93, -7034.47, -7114.09, -7133.25, -150266.14, -140304.28, -160893.84, -187500.02, 0.000, 0.000, 0.000, 23:16:30.640
234, -6960.18, -7031.79, -7111.41, -7130.63, -150262.91, -140300.86, -160890.17, -187500.02, 0.000, 0.000, 0.000, 23:16:30.641
235, -6957.40, -7029.31, -7109.02, -7128.04, -150259.55, -140297.33, -160886.27, -187500.02, 0.000, 0.000, 0.000, 23:16:30.641
236, -6958.37, -7030.14, -7109.80, -7128.84, -150259.73, -140297.53, -160886.55, -187500.02, 0.000, 0.000, 0.000, 23:16:30.641
237, -6960.71, -7032.24, -7111.86, -7130.97, -150261.36, -140299.39, -160888.67, -187500.02, -0.412, 0.086, 0.934, 23:16:30.642
238, -6957.27, -7028.93, -7108.61, -7127.66, -150257.45, -140295.33, -160884.41, -187500.02, 0.000, 0.000, 0.000, 23:16:30.642
239, -6953.43, -7025.33, -7104.99, -7123.93, -150253.03, -140290.47, -160879.05, -187500.02, 0.000, 0.000, 0.000, 23:16:30.642
240, -6954.81, -7026.61, -7106.31, -7125.31, -150253.88, -140291.25, -160880.08, -187500.02, 0.000, 0.000, 0.000, 23:16:30.642
241, -6956.67, -7028.13, -7107.94, -7126.88, -150255.27, -140293.09, -160882.39, -187500.02, 0.000, 0.000, 0.000, 23:16:30.643
242, -6954.66, -7026.23, -7106.00, -7125.09, -150252.98, -140290.88, -160880.30, -187500.02, 0.000, 0.000, 0.000, 23:16:30.643
243, -6954.83, -7026.70, -7106.49, -7125.51, -150252.64, -140290.41, -160879.45, -187500.02, 0.000, 0.000, 0.000, 23:16:30.643
244, -6956.56, -7028.37, -7108.06, -7127.12, -150253.61, -140291.45, -160880.63, -187500.02, 0.000, 0.000, 0.000, 23:16:30.644
245, -6957.00, -7028.60, -7108.17, -7127.39, -150253.50, -140291.61, -160881.55, -187500.02, 0.000, 0.000, 0.000, 23:16:30.644
246, -6954.54, -7026.25, -7105.80, -7125.04, -150250.67, -140289.06, -160879.00, -187500.02, 0.000, 0.000, 0.000, 23:16:30.644
247, -6952.60, -7024.64, -7104.26, -7123.37, -150248.41, -140286.56, -160876.11, -187500.02, -0.410, 0.046, 0.876, 23:16:30.644
248, -6953.81, -7025.87, -7105.49, -7124.60, -150249.06, -140287.13, -160876.78, -187500.02, 0.000, 0.000, 0.000, 23:16:30.645
249, -6956.85, -7028.86, -7108.30, -7127.48, -150251.53, -140289.98, -160880.31, -187500.02, 0.000, 0.000, 0.000, 23:16:30.645
250, -6955.57, -7027.68, -7107.12, -7126.38, -150249.97, -140288.64, -160879.22, -187500.02, 0.000, 0.000, 0.000, 23:16:30.645
251, -6953.85, -7026.16, -7105.69, -7124.98, -150247.84, -140286.45, -160876.50, -187500.02, 0.000, 0.000, 0.000, 23:16:30.646
252, -6954.28, -7026.58, -7106.16, -7125.22, -150247.55, -140286.06, -160876.05, -187500.02, 0.000, 0.000, 0.000, 23:16:30.646
253, -6954.43, -7026.47, -7106.11, -7125.27, -150247.13, -140285.98, -160876.66, -187500.02, 0.000, 0.000, 0.000, 23:16:30.646
254, -6920.57, -7006.62, -7082.31, -7108.73, -150248.72, -140289.02, -160878.53, -187500.02, 0.000, 0.000, 0.000, 23:16:30.646
255, -2164.36, -2523.24, -2493.69, -2683.48, -150281.64, -140344.45, -160905.22, -187500.02, 0.000, 0.000, 0.000, 23:16:30.647
0, 10731.16, 10584.65, 10667.33, 10571.88, -150402.95, -140544.64, -161006.52, -187500.02, -0.310, 0.056, 0.860, 23:16:30.647
1, 18100.84, 18096.93, 18163.72, 18151.92, -150558.55, -140799.73, -161138.33, -187500.02, 0.000, 0.000, 0.000, 23:16:30.647
2, 24442.41, 24438.41, 24509.00, 24497.69, -150716.13, -141057.92, -161271.97, -187500.02, 0.000, 0.000, 0.000, 23:16:30.647
3, 32225.09, 32220.46, 32296.12, 32285.71, -150904.69, -141369.59, -161429.92, -187500.02, 0.000, 0.000, 0.000, 23:16:30.648
4, 42105.05, 42100.09, 42181.56, 42172.38, -151144.25, -141765.58, -161630.53, -187500.02, 0.000, 0.000, 0.000, 23:16:30.648
5, 53318.03, 53312.66, 53399.52, 53392.08, -151422.94, -142222.14, -161866.20, -187500.02, 0.000, 0.000, 0.000, 23:16:30.648
6, 65328.67, 65323.17, 65415.17, 65410.12, -151718.78, -142708.75, -162117.58, -187500.02, 0.000, 0.000, 0.000, 23:16:30.649
7, 78871.19, 78865.52, 78963.16, 78960.95, -152051.16, -143256.34, -162401.02, -187500.02, 0.000, 0.000, 0.000, 23:16:30.649
8, 95102.24, 95096.48, 95200.62, 95201.89, -152450.81, -143914.66, -162740.97, -187500.02, 0.000, 0.000, 0.000, 23:16:30.649
9, 115707.78, 115701.90, 115813.99, 115819.90, -152965.67, -143809.42, -163182.61, -187500.02, 0.000, 0.000, 0.000, 23:16:30.649
10, 134995.91, 134990.41, 135109.27, 135119.67, -137649.70, -93883.23, -162440.63, -187500.02, -0.376, 0.034, 0.912, 23:16:30.650
11, 152543.19, 152538.05, 152663.19, 152677.81, -12679.03, 68180.10, -110793.55, -187500.02, 0.000, 0.000, 0.000, 23:16:30.650
12, 168580.34, 168575.64, 168707.47, 168726.08, 139296.95, 163878.72, 50694.94, -184272.38, 0.000, 0.000, 0.000, 23:16:30.650
13, 182519.22, 182515.22, 182652.23, 182674.23, 182391.92, 182624.31, 169028.88, -105012.88, 0.000, 0.000, 0.000, 23:16:30.651
14, 187500.00, 187500.00, 187500.00, 187500.00, 187500.00, 187500.00, 187500.00, 35678.99, 0.000, 0.000, 0.000, 23:16:30.651
15, 187500.00, 187500.00, 187500.00, 187500.00, 187500.00, 187500.00, 187500.00, 158136.11, 0.000, 0.000, 0.000, 23:16:30.651
16, 187500.00, 187500.00, 187500.00, 187500.00, 187500.00, 187500.00, 187500.00, 187500.00, 0.000, 0.000, 0.000, 23:16:30.651
17, 187500.00, 187500.00, 187500.00, 187500.00, 187500.00, 187500.00, 187500.00, 182488.20, 0.000, 0.000, 0.000, 23:16:30.652
18, 187500.00, 187500.00, 187500.00, 187500.00, 187500.00, 187500.00, 187500.00, 179008.20, 0.000, 0.000, 0.000, 23:16:30.652
19, 187500.00, 187500.00, 187500.00, 187500.00, 187500.00, 187500.00, 187500.00, 178097.47, 0.000, 0.000, 0.000, 23:16:30.652
20, 187500.00, 187500.00, 187500.00, 187500.00, 187500.00, 187500.00, 187500.00, 177598.95, -0.392, 0.030, 0.920, 23:16:30.652
21, 187500.00, 187500.00, 187500.00, 187500.00, 187500.00, 187500.00, 187500.00, 177129.83, 0.000, 0.000, 0.000, 23:16:30.653
22, 187500.00, 187500.00, 187500.00, 187500.00, 187500.00, 187500.00, 187500.00, 176725.88, 0.000, 0.000, 0.000, 23:16:30.653
23, 187500.00, 187500.00, 187500.00, 187500.00, 187500.00, 187500.00, 187500.00, 176371.23, 0.000, 0.000, 0.000, 23:16:30.654
24, 187500.00, 187500.00, 187500.00, 187500.00, 187500.00, 187500.00, 187500.00, 176033.30, 0.000, 0.000, 0.000, 23:16:30.654
25, 187500.00, 187500.00, 187500.00, 187500.00, 187500.00, 187500.00, 187500.00, 175621.09, 0.000, 0.000, 0.000, 23:16:30.654
26, 187500.00, 187500.00, 187500.00, 187500.00, 187500.00, 187500.00, 187500.00, 175166.69, 0.000, 0.000, 0.000, 23:16:30.654
27, 187500.00, 187500.00, 187500.00, 187500.00, 187500.00, 187500.00, 187500.00, 170552.00, 0.000, 0.000, 0.000, 23:16:30.655
28, 187500.00, 187500.00, 187500.00, 187500.00, 187500.00, 187500.00, 187500.00, 142742.95, 0.000, 0.000, 0.000, 23:16:30.655
29, 187500.00, 187500.00, 187500.00, 187500.00, 187500.00, 187500.00, 187500.00, 100944.41, 0.000, 0.000, 0.000, 23:16:30.655
30, 187500.00, 187500.00, 187500.00, 187500.00, 187500.00, 187500.00, 187500.00, 62572.86, -0.390, 0.012, 0.960, 23:16:30.655
31, 187500.00, 187500.00, 187500.00, 187500.00, 187500.00, 187500.00, 187500.00, 28387.94, 0.000, 0.000, 0.000, 23:16:30.656
32, 187500.00, 187500.00, 187500.00, 187500.00, 187500.00, 187500.00, 187500.00, 4265.81, 0.000, 0.000, 0.000, 23:16:30.656
33, 187500.00, 187500.00, 187500.00, 187500.00, 187500.00, 187500.00, 187500.00, -9048.03, 0.000, 0.000, 0.000, 23:16:30.656
34, 187500.00, 187500.00, 187500.00, 187500.00, 187500.00, 187500.00, 187500.00, -15527.33, 0.000, 0.000, 0.000, 23:16:30.656
35, 187500.00, 187500.00, 187500.00, 187500.00, 187500.00, 187500.00, 187500.00, -18237.50, 0.000, 0.000, 0.000, 23:16:30.657
36, 187500.00, 187500.00, 187500.00, 187500.00, 187500.00, 187500.00, 187500.00, -19027.62, 0.000, 0.000, 0.000, 23:16:30.657
37, 187500.00, 187500.00, 187500.00, 187500.00, 187500.00, 187500.00, 187500.00, -18207.82, 0.000, 0.000, 0.000, 23:16:30.657
38, 187500.00, 187500.00, 187500.00, 187500.00, 187500.00, 187500.00, 187500.00, -17475.58, 0.000, 0.000, 0.000, 23:16:30.658
39, 187500.00, 187500.00, 187500.00, 187500.00, 187500.00, 187500.00, 187500.00, -16503.10, -0.402, 0.000, 0.956, 23:16:30.658
40, 187500.00, 187500.00, 187500.00, 187500.00, 187500.00, 187500.00, 165492.56, -13031.94, 0.000, 0.000, 0.000, 23:16:30.658
41, 187500.00, 187500.00, 187500.00, 187500.00, 187500.00, 187500.00, 126429.24, -11255.69, 0.000, 0.000, 0.000, 23:16:30.658
42, 187500.00, 187500.00, 187500.00, 187500.00, 187500.00, 187500.00, 98141.19, -11766.32, 0.000, 0.000, 0.000, 23:16:30.659
43, 187500.00, 187500.00, 187500.00, 187500.00, 187500.00, 187500.00, 77997.28, -12815.51, 0.000, 0.000, 0.000, 23:16:30.659
44, 187500.00, 187500.00, 187500.00, 187500.00, 187500.00, 187500.00, 63522.47, -12768.70, 0.000, 0.000, 0.000, 23:16:30.659
45, 187500.00, 187500.00, 187500.00, 187500.00, 187500.00, 187500.00, 53087.40, -11834.18, 0.000, 0.000, 0.000, 23:16:30.659
46, 187500.00, 187500.00, 187500.00, 187500.00, 187500.00, 187500.00, 45791.59, -11414.05, 0.000, 0.000, 0.000, 23:16:30.660
47, 187500.00, 187500.00, 187500.00, 187500.00, 187500.00, 187500.00, 40827.88, -11667.25, 0.000, 0.000, 0.000, 23:16:30.660
48, 187500.00, 187500.00, 187500.00, 187500.00, 187500.00, 187500.00, 37218.02, -11326.63, 0.000, 0.000, 0.000, 23:16:30.660
49, 187500.00, 187500.00, 187500.00, 187500.00, 187500.00, 187500.00, 34450.27, -10086.56, -0.414, 0.022, 0.900, 23:16:30.660
50, 187500.00, 187500.00, 187500.00, 187500.00, 187500.00, 187500.00, 32589.54, -9258.23, 0.000, 0.000, 0.000, 23:16:30.660
51, 187500.00, 187500.00, 187500.00, 187500.00, 187500.00, 187500.00, 31200.46, -9989.13, 0.000, 0.000, 0.000, 23:16:30.660
52, 187500.00, 187500.00, 187500.00, 187500.00, 187500.00, 187500.00, 29542.37, -11325.16, 0.000, 0.000, 0.000, 23:16:30.661
53, 187500.00, 187500.00, 187500.00, 187500.00, 187500.00, 187500.00, 27823.36, -11653.55, 0.000, 0.000, 0.000, 23:16:30.661
54, 187500.00, 187500.00, 187500.00, 187500.00, 187500.00, 187500.00, 26796.30, -11882.21, 0.000, 0.000, 0.000, 23:16:30.661
55, 187500.00, 187500.00, 187500.00, 187500.00, 187500.00, 187500.00, 26408.36, -12980.35, 0.000, 0.000, 0.000, 23:16:30.661
56, 187500.00, 187500.00, 187500.00, 187500.00, 187500.00, 187500.00, 25880.44, -13896.35, 0.000, 0.000, 0.000, 23:16:30.661
57, 187500.00, 187500.00, 187500.00, 187500.00, 187500.00, 187500.00, 24717.41, -13174.16, 0.000, 0.000, 0.000, 23:16:30.661
58, 187500.00, 187500.00, 187500.00, 187500.00, 187500.00, 187500.00, 24333.27, -11051.04, 0.000, 0.000, 0.000, 23:16:30.662
59, 187500.00, 187500.00, 187500.00, 187500.00, 187500.00, 187500.00, 24742.35, -10162.62, -0.408, -0.046, 0.936, 23:16:30.662
60, 187500.00, 187500.00, 187500.00, 187500.00, 187500.00, 187500.00, 24990.95, -10206.77, 0.000, 0.000, 0.000, 23:16:30.662
61, 187500.00, 187500.00, 187500.00, 187500.00, 187500.00, 152122.34, 24661.19, -8474.80, 0.000, 0.000, 0.000, 23:16:30.662
62, 187500.00, 187500.00, 187500.00, 187500.00, 187500.00, 111354.64, 23679.95, -7894.17, 0.000, 0.000, 0.000, 23:16:30.662
63, 187500.00, 187500.00, 187500.00, 187500.00, 187500.00, 85652.40, 23345.19, -8448.91, 0.000, 0.000, 0.000, 23:16:30.662
64, 187500.00, 187500.00, 187500.00, 187500.00, 187500.00, 69673.18, 23614.53, -9056.17, 0.000, 0.000, 0.000, 23:16:30.663
65, 187500.00, 187500.00, 187500.00, 187500.00, 187500.00, 58978.56, 23381.11, -8969.96, 0.000, 0.000, 0.000, 23:16:30.663
66, 187500.00, 187500.00, 187500.00, 187500.00, 187500.00, 51872.30, 22923.77, -8300.03, 0.000, 0.000, 0.000, 23:16:30.663
67, 187500.00, 187500.00, 187500.00, 187500.00, 187500.00, 48796.56, 22731.41, -8660.32, 0.000, 0.000, 0.000, 23:16:30.663
68, 187500.00, 187500.00, 187500.00, 187500.00, 187500.00, 48201.67, 22847.24, -9636.02, -0.422, 0.006, 0.862, 23:16:30.663
69, 187500.00, 187500.00, 187500.00, 187500.00, 187500.00, 47497.39, 22750.59, -9613.95, 0.000, 0.000, 0.000, 23:16:30.663
70, 187500.00, 187500.00, 187500.00, 187500.00, 187500.00, 46174.50, 22329.64, -8817.32, 0.000, 0.000, 0.000, 23:16:30.664
71, 187500.00, 187500.00, 187500.00, 187500.00, 187500.00, 45066.10, 21882.16, -9182.74, 0.000, 0.000, 0.000, 23:16:30.664
72, 187500.00, 187500.00, 187500.00, 187500.00, 187500.00, 44127.50, 21519.86, -10734.58, 0.000, 0.000, 0.000, 23:16:30.664
73, 187500.00, 187500.00, 187500.00, 187500.00, 187500.00, 42918.72, 20696.22, -11823.78, 0.000, 0.000, 0.000, 23:16:30.664
74, 187500.00, 187500.00, 187500.00, 187500.00, 187500.00, 41884.51, 19878.90, -11335.53, 0.000, 0.000, 0.000, 23:16:30.664
75, 187500.00, 187500.00, 187500.00, 187500.00, 187500.00, 41389.57, 19435.47, -11492.35, 0.000, 0.000, 0.000, 23:16:30.664
76, 187500.00, 187500.00, 187500.00, 187500.00, 187500.00, 41335.35, 19153.79, -13749.99, 0.000, 0.000, 0.000, 23:16:30.665
77, 187500.00, 187500.00, 187500.00, 187500.00, 187500.00, 41278.91, 18744.24, -15258.04, 0.000, 0.000, 0.000, 23:16:30.665
78, 187500.00, 187500.00, 187500.00, 187500.00, 187500.00, 41001.05, 18235.54, -14864.85, -0.406, -0.014, 0.886, 23:16:30.665
79, 187500.00, 187500.00, 187500.00, 187500.00, 187500.00, 41373.10, 17929.76, -15019.41, 0.000, 0.000, 0.000, 23:16:30.665
80, 187500.00, 187500.00, 187500.00, 187500.00, 187500.00, 42497.71, 18093.29, -16451.53, 0.000, 0.000, 0.000, 23:16:30.665
81, 187500.00, 187500.00, 187500.00, 187500.00, 187500.00, 43295.30, 18242.20, -17367.15, 0.000, 0.000, 0.000, 23:16:30.665
82, 187500.00, 187500.00, 187500.00, 187500.00, 187500.00, 43234.06, 17996.33, -16886.77, 0.000, 0.000, 0.000, 23:16:30.666
83, 187500.00, 187500.00, 187500.00, 187500.00, 187500.00, 42929.38, 17809.09, -16277.12, 0.000, 0.000, 0.000, 23:16:30.666
84, 187500.00, 187500.00, 187500.00, 187500.00, 187500.00, 42933.72, 17863.02, -17168.96, 0.000, 0.000, 0.000, 23:16:30.666
85, 187500.00, 187500.00, 187500.00, 187500.00, 187500.00, 42941.52, 17765.52, -18367.12, 0.000, 0.000, 0.000, 23:16:30.666
86, 187500.00, 187500.00, 187500.00, 187500.00, 187500.00, 42588.03, 17360.24, -17832.80, 0.000, 0.000, 0.000, 23:16:30.666
87, 187500.00, 187500.00, 187500.00, 187500.00, 169801.48, 41980.35, 16779.43, -16513.49, 0.000, 0.000, 0.000, 23:16:30.666
88, 187500.00, 187500.00, 187500.00, 187500.00, 135797.06, 41532.07, 16395.83, -17107.67, -0.372, -0.036, 0.910, 23:16:30.667
89, 187500.00, 187500.00, 187500.00, 187500.00, 107771.28, 41459.24, 16261.45, -18523.09, 0.000, 0.000, 0.000, 23:16:31.115
90, 187500.00, 187500.00, 187500.00, 187500.00, 85715.27, 41044.15, 15938.98, -18453.89, 0.000, 0.000, 0.000, 23:16:31.116
91, 187500.00, 187500.00, 187500.00, 187500.00, 68401.12, 40239.49, 15527.06, -17609.04, 0.000, 0.000, 0.000, 23:16:31.117
92, 187500.00, 187500.00, 187500.00, 187500.00, 55187.55, 39520.97, 15327.98, -18291.93, 0.000, 0.000, 0.000, 23:16:31.117
93, 187500.00, 187500.00, 187500.00, 187500.00, 45482.04, 38964.92, 15290.29, -19921.33, 0.000, 0.000, 0.000, 23:16:31.117
94, 187500.00, 187500.00, 187500.00, 187500.00, 38073.13, 38364.22, 15083.92, -20159.91, 0.000, 0.000, 0.000, 23:16:31.117
95, 187500.00, 187500.00, 187500.00, 187500.00, 32204.64, 37568.43, 14656.73, -19299.50, 0.000, 0.000, 0.000, 23:16:31.117
96, 187500.00, 187500.00, 187500.00, 187500.00, 27725.57, 37075.06, 14452.82, -19527.80, 0.000, 0.000, 0.000, 23:16:31.117
97, 187500.00, 187500.00, 187500.00, 187500.00, 24519.26, 36986.01, 14436.77, -21025.97, 0.000, 0.000, 0.000, 23:16:31.117
98, 187500.00, 187500.00, 187500.00, 187500.00, 22103.08, 36851.36, 14301.81, -21411.36, -0.398, -0.090, 0.962, 23:16:31.117
99, 187500.00, 187500.00, 187500.00, 187500.00, 19982.75, 36420.71, 13965.82, -20416.60, 0.000, 0.000, 0.000, 23:16:31.117
100, 187500.00, 187500.00, 187500.00, 187500.00, 18147.20, 36285.95, 13761.72, -20216.30, 0.000, 0.000, 0.000, 23:16:31.119
101, 187500.00, 187500.00, 187500.00, 187500.00, 16360.29, 36496.11, 13623.57, -21674.20, 0.000, 0.000, 0.000, 23:16:31.119
102, 187500.00, 187500.00, 187500.00, 187500.00, 14618.20, 36329.61, 13134.29, -22712.68, 0.000, 0.000, 0.000, 23:16:31.119
103, 187500.00, 187500.00, 187500.00, 187500.00, 13262.81, 36063.69, 12719.97, -21702.52, 0.000, 0.000, 0.000, 23:16:31.119
104, 187500.00, 187500.00, 187500.00, 187500.00, 12013.57, 35912.46, 12442.52, -21224.54, 0.000, 0.000, 0.000, 23:16:31.119
105, 187500.00, 187500.00, 187500.00, 187500.00, 11091.07, 36187.27, 12306.38, -22567.93, 0.000, 0.000, 0.000, 23:16:31.119
106, 187500.00, 187500.00, 187500.00, 187500.00, 11045.94, 36421.36, 12081.41, -23632.28, 0.000, 0.000, 0.000, 23:16:31.121
107, 187500.00, 187500.00, 187500.00, 187500.00, 11047.57, 36141.90, 11678.79, -22819.28, -0.424, -0.038, 0.930, 23:16:31.121
108, 187500.00, 187500.00, 187500.00, 187500.00, 10716.05, 36052.87, 11676.24, -21632.62, 0.000, 0.000, 0.000, 23:16:31.122
109, 187500.00, 187500.00, 187500.00, 187500.00, 10517.59, 36466.76, 12096.81, -22121.12, 0.000, 0.000, 0.000, 23:16:31.123
110, 187500.00, 187500.00, 187500.00, 187500.00, 10377.00, 36827.65, 12473.90, -22811.45, 0.000, 0.000, 0.000, 23:16:31.123
111, 187500.00, 187500.00, 187500.00, 187500.00, 10118.12, 36762.98, 12500.35, -21857.81, 0.000, 0.000, 0.000, 23:16:31.123
112, 187500.00, 187500.00, 187500.00, 187500.00, 9743.84, 36612.09, 12371.15, -20662.31, 0.000, 0.000, 0.000, 23:16:31.123
113, 187500.00, 187500.00, 187500.00, 187500.00, 9379.19, 36911.89, 12445.36, -21195.29, 0.000, 0.000, 0.000, 23:16:31.123
114, 187500.00, 187500.00, 187500.00, 187500.00, 9435.99, 37352.20, 12478.42, -22438.38, 0.000, 0.000, 0.000, 23:16:31.123
115, 187500.00, 187500.00, 187500.00, 187500.00, 8520.55, 37705.89, 12506.76, -21732.87, 0.000, 0.000, 0.000, 23:16:31.123
116, 187500.00, 187500.00, 187500.00, 187500.00, 5763.93, 37778.02, 12518.50, -20201.82, 0.000, 0.000, 0.000, 23:16:31.123
117, 187500.00, 187500.00, 187500.00, 187500.00, 3292.05, 37801.40, 12501.75, -20604.26, -0.390, -0.010, 0.942, 23:16:31.123
118, 187500.00, 187500.00, 187500.00, 187500.00, 2083.29, 37947.07, 12144.31, -22252.84, 0.000, 0.000, 0.000, 23:16:31.124
119, 187500.00, 187500.00, 187500.00, 187500.00, 1890.82, 38386.68, 11749.40, -22567.19, 0.000, 0.000, 0.000, 23:16:31.124
120, 187500.00, 187500.00, 187500.00, 187500.00, 2072.54, 39407.11, 12402.85, -20428.26, 0.000, 0.000, 0.000, 23:16:31.124
121, 187500.00, 187500.00, 187500.00, 187500.00, 2151.49, 40064.09, 13458.48, -19445.68, 0.000, 0.000, 0.000, 23:16:31.124
122, 187500.00, 187500.00, 187500.00, 187500.00, 2071.29, 40375.32, 14548.77, -20279.76, 0.000, 0.000, 0.000, 23:16:31.124
123, 187500.00, 187500.00, 187500.00, 187500.00, 1725.04, 38735.04, 14213.76, -21906.63, 0.000, 0.000, 0.000, 23:16:31.124
124, 187500.00, 187500.00, 187500.00, 187500.00, 1158.87, 34841.92, 12161.36, -23218.81, 0.000, 0.000, 0.000, 23:16:31.124
125, 187500.00, 187500.00, 187500.00, 187500.00, 623.57, 31132.98, 10327.69, -23772.35, 0.000, 0.000, 0.000, 23:16:31.125
126, 187500.00, 187500.00, 187500.00, 187500.00, 348.11, 28155.37, 10631.56, -23195.16, 0.000, 0.000, 0.000, 23:16:31.126
127, 187500.00, 187500.00, 187500.00, 187500.00, 619.75, 27436.38, 13301.99, -19630.84, -0.400, -0.014, 0.938, 23:16:31.126
128, 187500.00, 187500.00, 187500.00, 187500.00, 811.90, 27590.99, 14607.40, -16910.26, 0.000, 0.000, 0.000, 23:16:31.126
129, 187500.00, 187500.00, 187500.00, 187500.00, 807.30, 28096.52, 15090.91, -16160.00, 0.000, 0.000, 0.000, 23:16:31.126
130, 187500.00, 187500.00, 187500.00, 187500.00, 786.36, 30846.63, 15045.27, -17372.42, 0.000, 0.000, 0.000, 23:16:31.126
131, 187500.00, 187500.00, 187500.00, 187500.00, 647.78, 33302.91, 13820.62, -18564.84, 0.000, 0.000, 0.000, 23:16:31.126
132, 187500.00, 187500.00, 187500.00, 187500.00, 359.66, 33410.13, 11673.38, -19159.71, 0.000, 0.000, 0.000, 23:16:31.126
133, 187500.00, 187500.00, 187500.00, 187500.00, -29.46, 31651.39, 9729.40, -19502.30, 0.000, 0.000, 0.000, 23:16:31.127
134, 187500.00, 187500.00, 187500.00, 187500.00, -364.02, 28899.53, 9571.42, -19729.66, 0.000, 0.000, 0.000, 23:16:31.127
135, 187500.00, 187500.00, 187500.00, 187500.00, -566.10, 26596.47, 10480.11, -19425.34, 0.000, 0.000, 0.000, 23:16:31.127
136, 187500.00, 187500.00, 187500.00, 187500.00, -694.87, 24076.40, 11166.64, -17707.03, 0.000, 0.000, 0.000, 23:16:31.127
137, 187500.00, 187500.00, 187500.00, 187500.00, -599.56, 23262.78, 12418.47, -14814.40, -0.390, -0.012, 0.948, 23:16:31.127
138, 187500.00, 187500.00, 187500.00, 187500.00, -626.85, 23635.07, 13452.75, -14378.41, 0.000, 0.000, 0.000, 23:16:31.127
139, 187500.00, 187500.00, 187500.00, 187500.00, -821.90, 24183.71, 13382.01, -15744.34, 0.000, 0.000, 0.000, 23:16:31.127
140, 187500.00, 187500.00, 187500.00, 187500.00, -914.97, 24502.83, 13600.32, -15730.58, 0.000, 0.000, 0.000, 23:16:31.127
141, 187500.00, 187500.00, 187500.00, 187500.00, -949.50, 24463.78, 13936.11, -14733.35, 0.000, 0.000, 0.000, 23:16:31.127
142, 187500.00, 187500.00, 187500.00, 187500.00, -1183.39, 24182.66, 13237.35, -14839.43, 0.000, 0.000, 0.000, 23:16:31.127
143, 187500.00, 187500.00, 187500.00, 187500.00, -1481.63, 23833.75, 12456.13, -15970.81, 0.000, 0.000, 0.000, 23:16:31.127
144, 187500.00, 187500.00, 187500.00, 187500.00, -1469.72, 23794.01, 12740.54, -14160.99, 0.000, 0.000, 0.000, 23:16:31.127
145, 187500.00, 187500.00, 187500.00, 187500.00, -1226.35, 23986.80, 14343.09, -10437.79, 0.000, 0.000, 0.000, 23:16:31.127
146, 187500.00, 187500.00, 187500.00, 187500.00, -1085.56, 24079.40, 15890.21, -7763.57, -0.362, 0.010, 0.970, 23:16:31.128
147, 187500.00, 187500.00, 187500.00, 187500.00, -1186.59, 23926.63, 16251.39, -7112.30, 0.000, 0.000, 0.000, 23:16:31.128
148, 187500.00, 187500.00, 187500.00, 187500.00, -1368.17, 23695.60, 15920.45, -7397.78, 0.000, 0.000, 0.000, 23:16:31.128
149, 187500.00, 187500.00, 187500.00, 187500.00, -1558.14, 23462.60, 15576.44, -7675.52, 0.000, 0.000, 0.000, 23:16:31.128
150, 187500.00, 187500.00, 187500.00, 187500.00, -1813.71, 23164.10, 15164.92, -8066.03, 0.000, 0.000, 0.000, 23:16:31.128
151, 187500.00, 187500.00, 187500.00, 187500.00, -2177.44, 22752.42, 14624.66, -8671.92, 0.000, 0.000, 0.000, 23:16:31.128
152, 187500.00, 187500.00, 187500.00, 187500.00, -2223.13, 22654.25, 14405.32, -9126.71, 0.000, 0.000, 0.000, 23:16:31.128
153, 187500.00, 187500.00, 187500.00, 187500.00, -28.03, 24771.74, 16467.94, -6410.12, 0.000, 0.000, 0.000, 23:16:31.129
154, 187500.00, 187500.00, 187500.00, 187500.00, 868.95, 25616.26, 17226.24, -4775.83, 0.000, 0.000, 0.000, 23:16:31.129
155, 187500.00, 187500.00, 187500.00, 187500.00, 546.30, 25253.45, 16727.11, -5086.97, 0.000, 0.000, 0.000, 23:16:31.129
156, 187500.00, 187500.00, 187500.00, 187500.00, 197.23, 24863.72, 16196.21, -5560.26, -0.374, 0.010, 0.930, 23:16:31.129
157, 187500.00, 187500.00, 187500.00, 187500.00, -161.16, 24471.27, 15678.23, -6032.94, 0.000, 0.000, 0.000, 23:16:31.129
158, 187500.00, 187500.00, 187500.00, 187500.00, -519.01, 24082.57, 15168.81, -6497.38, 0.000, 0.000, 0.000, 23:16:31.129
159, 187500.00, 187500.00, 187500.00, 187500.00, -856.23, 23706.53, 14657.40, -6971.22, 0.000, 0.000, 0.000, 23:16:31.129
160, 187500.00, 187500.00, 187500.00, 187500.00, -1187.66, 23333.37, 14143.20, -7450.31, 0.000, 0.000, 0.000, 23:16:31.129
161, 187500.00, 187500.00, 187500.00, 187500.00, -1537.89, 22948.89, 13630.18, -7918.37, 0.000, 0.000, 0.000, 23:16:31.130
162, 187500.00, 187500.00, 187500.00, 187500.00, -1895.49, 22563.04, 13124.74, -8375.00, 0.000, 0.000, 0.000, 23:16:31.130
163, 187500.00, 187500.00, 187500.00, 187500.00, -2233.65, 22189.60, 12621.05, -8840.70, 0.000, 0.000, 0.000, 23:16:31.130
164, 187500.00, 187500.00, 187500.00, 187500.00, -2563.34, 21819.46, 12111.54, -9318.75, 0.000, 0.000, 0.000, 23:16:31.130
165, 187500.00, 187500.00, 187500.00, 187500.00, -2909.33, 21436.98, 11601.52, -9786.35, 0.000, 0.000, 0.000, 23:16:31.130
166, 187500.00, 187500.00, 187500.00, 187500.00, -3266.26, 21050.40, 11100.52, -10235.80, -0.368, 0.054, 0.962, 23:16:31.130
167, 187500.00, 187500.00, 187500.00, 187500.00, -3604.35, 20676.66, 10603.51, -10691.93, 0.000, 0.000, 0.000, 23:16:31.130
168, 187500.00, 187500.00, 187500.00, 187500.00, -3927.07, 20312.15, 10098.58, -11166.10, 0.000, 0.000, 0.000, 23:16:31.131
169, 187500.00, 187500.00, 187500.00, 187500.00, -4267.86, 19934.58, 9590.33, -11632.88, 0.000, 0.000, 0.000, 23:16:31.131
170, 187500.00, 187500.00, 187500.00, 187500.00, -4626.23, 19549.28, 9090.36, -12077.72, 0.000, 0.000, 0.000, 23:16:31.131
171, 187500.00, 187500.00, 187500.00, 187500.00, -4968.84, 19174.98, 8594.63, -12527.95, 0.000, 0.000, 0.000, 23:16:31.131
172, 187500.00, 187500.00, 187500.00, 187500.00, -5290.86, 18809.46, 8090.88, -13003.44, 0.000, 0.000, 0.000, 23:16:31.131
173, 187500.00, 187500.00, 187500.00, 187500.00, -5627.59, 18434.73, 7585.62, -13474.82, 0.000, 0.000, 0.000, 23:16:31.131
174, 187500.00, 187500.00, 187500.00, 187500.00, -5985.44, 18049.23, 7090.04, -13920.67, 0.000, 0.000, 0.000, 23:16:31.131
175, 187500.00, 187500.00, 187500.00, 187500.00, -6331.29, 17672.90, 6598.41, -14366.05, -0.484, -0.032, 0.504, 23:16:31.131
176, 187500.00, 187500.00, 187500.00, 187500.00, -6649.87, 17313.86, 6098.96, -14832.33, 0.000, 0.000, 0.000, 23:16:31.132
177, 187500.00, 187500.00, 187500.00, 187500.00, -6977.68, 16947.85, 5595.22, -15302.67, 0.000, 0.000, 0.000, 23:16:31.132
178, 187500.00, 187500.00, 187500.00, 187500.00, -7333.09, 16565.14, 5098.70, -15750.54, 0.000, 0.000, 0.000, 23:16:31.132
179, 187500.00, 187500.00, 187500.00, 187500.00, -7668.53, 16200.28, 4624.87, -16285.48, 0.000, 0.000, 0.000, 23:16:31.132
180, 187500.00, 187500.00, 187500.00, 187500.00, -7934.78, 15889.14, 4186.44, -17160.35, 0.000, 0.000, 0.000, 23:16:31.132
181, 187500.00, 187500.00, 187500.00, 187500.00, -8202.53, 15573.60, 3741.37, -18105.34, 0.000, 0.000, 0.000, 23:16:31.132
182, 187500.00, 187500.00, 187500.00, 187500.00, -8508.28, 15234.55, 3297.51, -18977.12, 0.000, 0.000, 0.000, 23:16:31.132
183, 187500.00, 187500.00, 187500.00, 187500.00, -8810.86, 14903.20, 2869.20, -19878.93, 0.000, 0.000, 0.000, 23:16:31.132
184, 187500.00, 187500.00, 187500.00, 187500.00, -9105.81, 14567.48, 2414.35, -20646.80, 0.000, 0.000, 0.000, 23:16:31.133
185, 187500.00, 187500.00, 187500.00, 187500.00, -9424.77, 14202.59, 1923.35, -21183.57, -0.404, -0.010, 0.710, 23:16:31.133
186, 187500.00, 187500.00, 187500.00, 187500.00, -9780.50, 13813.49, 1431.85, -21635.66, 0.000, 0.000, 0.000, 23:16:31.133
187, 187500.00, 187500.00, 187500.00, 187500.00, -10148.74, 13420.37, 951.20, -22058.82, 0.000, 0.000, 0.000, 23:16:31.133
188, 187500.00, 187500.00, 187500.00, 187500.00, -10484.80, 13047.45, 468.74, -22501.97, 0.000, 0.000, 0.000, 23:16:31.133
189, 187500.00, 187500.00, 187500.00, 187500.00, -10803.09, 12684.30, -21.12, -22965.77, 0.000, 0.000, 0.000, 23:16:31.133
190, 187500.00, 187500.00, 187500.00, 187500.00, -11151.53, 12302.91, -510.07, -23412.09, 0.000, 0.000, 0.000, 23:16:31.133
191, 187500.00, 187500.00, 187500.00, 187500.00, -11521.52, 11910.22, -988.77, -23832.30, 0.000, 0.000, 0.000, 23:16:31.133
192, 187500.00, 187500.00, 187500.00, 187500.00, -11863.93, 11535.42, -1464.17, -24266.84, 0.000, 0.000, 0.000, 23:16:31.134
193, 187500.00, 187500.00, 187500.00, 187500.00, -12181.21, 11172.59, -1951.17, -24730.60, 0.000, 0.000, 0.000, 23:16:31.134
194, 187500.00, 187500.00, 187500.00, 187500.00, -12521.94, 10794.22, -2436.36, -25178.81, 0.000, 0.000, 0.000, 23:16:31.134
195, 187500.00, 187500.00, 187500.00, 187500.00, -12889.76, 10403.15, -2909.88, -25595.63, -0.442, -0.048, 0.806, 23:16:31.134
196, 187500.00, 187500.00, 187500.00, 187500.00, -13239.70, 10022.14, -3387.83, -26023.93, 0.000, 0.000, 0.000, 23:16:31.134
197, 187500.00, 187500.00, 187500.00, 187500.00, -13559.39, 9656.87, -3878.70, -26487.24, 0.000, 0.000, 0.000, 23:16:31.134
198, 187500.00, 187500.00, 187500.00, 187500.00, -13882.62, 9294.06, -4354.32, -26925.98, 0.000, 0.000, 0.000, 23:16:31.134
199, 187500.00, 187500.00, 187500.00, 187500.00, -14148.03, 9009.94, -4709.67, -27211.19, 0.000, 0.000, 0.000, 23:16:31.134
200, 187500.00, 187500.00, 187500.00, 187500.00, -14427.07, 8708.66, -5092.49, -27531.69, 0.000, 0.000, 0.000, 23:16:31.134
201, 187500.00, 187500.00, 187500.00, 187500.00, -14852.93, 8233.00, -5704.63, -28129.54, 0.000, 0.000, 0.000, 23:16:31.135
202, 187500.00, 187500.00, 187500.00, 187500.00, -15282.92, 7755.90, -6313.07, -28720.34, 0.000, 0.000, 0.000, 23:16:31.135
203, 187500.00, 187500.00, 187500.00, 187500.00, -15559.18, 7460.30, -6683.24, -29027.40, 0.000, 0.000, 0.000, 23:16:31.135
204, 187500.00, 187500.00, 187500.00, 187500.00, -15809.08, 7189.17, -7026.23, -29302.82, 0.000, 0.000, 0.000, 23:16:31.135
205, 187500.00, 187500.00, 187500.00, 187500.00, -16211.09, 6741.35, -7599.95, -29852.99, -0.390, -0.076, 0.892, 23:16:31.135
206, 187500.00, 187500.00, 187500.00, 187500.00, -16654.93, 6249.19, -8226.60, -30464.80, 0.000, 0.000, 0.000, 23:16:31.135
207, 187500.00, 187500.00, 187500.00, 187500.00, -16950.31, 5929.72, -8632.89, -30815.23, 0.000, 0.000, 0.000, 23:16:31.135
208, 187500.00, 187500.00, 187500.00, 187500.00, -17180.89, 5680.11, -8956.14, -31070.47, 0.000, 0.000, 0.000, 23:16:31.136
209, 187500.00, 187500.00, 187500.00, 187500.00, -17553.43, 5268.66, -9482.37, -31567.68, 0.000, 0.000, 0.000, 23:16:31.595
210, 187500.00, 187500.00, 187500.00, 187500.00, -18006.21, 4769.08, -10114.14, -32185.59, 0.000, 0.000, 0.000, 23:16:31.596
211, 187500.00, 187500.00, 187500.00, 187500.00, -18328.41, 4420.64, -10557.56, -32581.24, 0.000, 0.000, 0.000, 23:16:31.596
212, 187500.00, 187500.00, 187500.00, 187500.00, -18553.42, 4178.52, -10867.93, -32823.69, 0.000, 0.000, 0.000, 23:16:31.596
213, 187500.00, 187500.00, 187500.00, 187500.00, -18898.33, 3798.81, -11349.86, -33267.31, 0.000, 0.000, 0.000, 23:16:31.596
214, 187500.00, 187500.00, 187500.00, 187500.00, -19358.15, 3291.36, -11989.70, -33893.76, -0.368, -0.036, 0.906, 23:16:31.596
215, 187500.00, 187500.00, 187500.00, 187500.00, -19705.30, 2909.88, -12469.75, -34332.88, 0.000, 0.000, 0.000, 23:16:31.596
216, 187500.00, 187500.00, 187500.00, 187500.00, -19919.83, 2679.82, -12765.77, -34557.56, 0.000, 0.000, 0.000, 23:16:31.596
217, 187500.00, 187500.00, 187500.00, 187500.00, -20231.50, 2337.84, -13202.42, -34948.00, 0.000, 0.000, 0.000, 23:16:31.596
218, 187500.00, 187500.00, 187500.00, 187500.00, -20690.81, 1823.99, -13853.03, -35584.24, 0.000, 0.000, 0.000, 23:16:31.596
219, 187500.00, 187500.00, 187500.00, 187500.00, -21070.86, 1406.77, -14380.42, -36075.63, 0.000, 0.000, 0.000, 23:16:31.596
220, 187500.00, 187500.00, 187500.00, 187500.00, -21289.52, 1181.76, -14668.13, -36290.63, 0.000, 0.000, 0.000, 23:16:31.596
221, 187500.00, 187500.00, 187500.00, 187500.00, -21567.40, 882.89, -15047.82, -36616.54, 0.000, 0.000, 0.000, 23:16:31.597
222, 187500.00, 187500.00, 187500.00, 187500.00, -22020.33, 368.00, -15699.78, -37256.49, 0.000, 0.000, 0.000, 23:16:31.597
223, 187500.00, 187500.00, 187500.00, 187500.00, -22431.27, -90.10, -16279.40, -37813.27, 0.000, 0.000, 0.000, 23:16:31.597
224, 187500.00, 187500.00, 187500.00, 187500.00, -22652.64, -308.70, -16556.47, -38022.57, -0.390, -0.038, 0.926, 23:16:31.597
225, 187500.00, 187500.00, 187500.00, 187500.00, -22891.85, -552.42, -16866.31, -38270.90, 0.000, 0.000, 0.000, 23:16:31.597
226, 187500.00, 187500.00, 187500.00, 187500.00, -23335.76, -1063.63, -17515.70, -38905.73, 0.000, 0.000, 0.000, 23:16:31.597
227, 187500.00, 187500.00, 187500.00, 187500.00, -23787.60, -1584.56, -18173.17, -39548.48, 0.000, 0.000, 0.000, 23:16:31.597
228, 187500.00, 187500.00, 187500.00, 187500.00, -23953.71, -1738.70, -18385.31, -39694.86, 0.000, 0.000, 0.000, 23:16:31.597
229, 187500.00, 187500.00, 187500.00, 187500.00, -22335.54, -140.15, -16809.74, -37812.00, 0.000, 0.000, 0.000, 23:16:31.597
230, 187500.00, 187500.00, 187500.00, 187500.00, -45412.75, -22930.70, -40183.59, -60899.09, 0.000, 0.000, 0.000, 23:16:31.597
231, 187500.00, 187500.00, 187500.00, 187500.00, -111399.34, -87936.38, -106607.11, -127562.09, 0.000, 0.000, 0.000, 23:16:31.597
232, 187500.00, 187500.00, 187500.00, 187500.00, -178800.56, -159182.77, -175569.02, -187500.02, 0.000, 0.000, 0.000, 23:16:31.597
233, 182554.92, 182551.27, 182688.64, 182711.94, -187500.02, -187500.02, -187500.02, -187500.02, 0.000, 0.000, 0.000, 23:16:31.598
234, 175395.19, 175391.03, 175525.56, 175546.92, -187500.02, -187500.02, -187500.02, -187500.02, -0.398, -0.066, 0.954, 23:16:31.598
235, 167636.05, 167631.70, 167763.27, 167782.36, -187500.02, -187500.02, -187500.02, -187500.02, 0.000, 0.000, 0.000, 23:16:31.598
236, 161903.36, 161898.98, 162028.22, 162045.58, -187500.02, -187500.02, -187500.02, -187500.02, 0.000, 0.000, 0.000, 23:16:31.598
237, 158357.05, 158352.61, 158480.34, 158496.80, -187500.02, -187500.02, -187500.02, -187500.02, 0.000, 0.000, 0.000, 23:16:31.598
238, 155307.83, 155303.33, 155429.98, 155445.88, -187500.02, -187500.02, -187500.02, -187500.02, 0.000, 0.000, 0.000, 23:16:31.598
239, 152152.36, 152147.78, 152272.34, 152287.44, -187500.02, -187500.02, -187500.02, -187500.02, 0.000, 0.000, 0.000, 23:16:31.598
240, 149440.98, 149712.84, 149851.16, 149865.69, -187500.02, -187500.02, -187500.02, -187500.02, 0.000, 0.000, 0.000, 23:16:31.598
241, 137961.80, 144256.98, 148379.70, 148393.66, -187500.02, -187500.02, -187500.02, -187500.02, 0.000, 0.000, 0.000, 23:16:31.598
242, 113241.48, 125002.84, 146998.13, 147011.28, -187500.02, -187500.02, -187500.02, -187500.02, 0.000, 0.000, 0.000, 23:16:31.598
243, 95179.71, 106147.52, 145208.70, 145221.58, -187500.02, -187500.02, -187500.02, -187500.02, 0.000, 0.000, 0.000, 23:16:31.598
244, 77672.94, 87594.07, 143787.11, 143800.28, -187500.02, -187500.02, -187500.02, -187500.02, -0.438, -0.082, 0.968, 23:16:31.599
245, 57175.05, 67578.89, 143210.53, 143231.06, -187500.02, -187500.02, -187500.02, -187500.02, 0.000, 0.000, 0.000, 23:16:31.599
246, 43139.83, 54988.73, 140271.34, 142738.95, -187500.02, -187500.02, -187500.02, -187500.02, 0.000, 0.000, 0.000, 23:16:31.599
247, 38480.34, 51009.43, 123575.77, 141665.86, -187500.02, -187500.02, -187500.02, -187500.02, 0.000, 0.000, 0.000, 23:16:31.599
248, 32866.14, 45209.55, 102055.63, 140672.89, -187500.02, -187500.02, -187500.02, -187500.02, 0.000, 0.000, 0.000, 23:16:31.599
249, 23159.80, 34223.40, 84264.46, 140467.77, -187500.02, -187500.02, -187500.02, -187500.02, 0.000, 0.000, 0.000, 23:16:31.599
250, 16939.63, 27161.64, 70535.98, 140446.64, -187500.02, -187500.02, -187500.02, -187500.02, 0.000, 0.000, 0.000, 23:16:31.599
251, 17471.51, 27695.20, 60445.55, 139783.36, -187500.02, -187500.02, -187500.02, -187500.02, 0.000, 0.000, 0.000, 23:16:31.599
252, 16661.57, 27471.54, 52338.26, 138963.34, -187500.02, -187500.02, -187500.02, -187500.02, 0.000, 0.000, 0.000, 23:16:31.599
253, 9694.71, 21031.90, 44604.78, 138836.77, -187500.02, -187500.02, -187500.02, -187500.02, -0.412, 0.012, 0.876, 23:16:31.599
254, 2816.83, 15631.49, 38449.54, 139022.89, -187500.02, -187500.02, -187500.02, -187500.02, 0.000, 0.000, 0.000, 23:16:31.599
255, 2037.61, 16726.01, 34153.82, 138591.70, -187500.02, -187500.02, -187500.02, -187500.02, 0.000, 0.000, 0.000, 23:16:31.599
0, 1908.41, 17831.93, 30489.05, 137809.66, -187500.02, -187500.02, -187500.02, -187500.02, 0.000, 0.000, 0.000, 23:16:31.600
1, -2965.09, 13491.58, 27323.64, 137669.58, -187500.02, -187500.02, -187500.02, -187500.02, 0.000, 0.000, 0.000, 23:16:31.600
2, -7627.00, 9182.14, 24950.22, 138025.84, -187500.02, -187500.02, -187500.02, -187500.02, 0.000, 0.000, 0.000, 23:16:31.600
3, -6881.21, 10907.03, 23066.24, 137857.08, -187500.02, -187500.02, -187500.02, -187500.02, 0.000, 0.000, 0.000, 23:16:31.600
4, -4985.04, 13768.99, 21105.12, 137174.53, -187500.02, -187500.02, -187500.02, -187500.02, 0.000, 0.000, 0.000, 23:16:31.600
5, -8018.51, 11052.51, 19159.76, 136988.67, -187500.02, -187500.02, -187500.02, -187500.02, 0.000, 0.000, 0.000, 23:16:31.600
6, -12517.58, 7061.45, 17651.78, 137407.56, -187500.02, -187500.02, -187500.02, -187500.02, 0.000, 0.000, 0.000, 23:16:31.600
7, -13090.41, 8697.35, 16395.14, 137430.55, -187500.02, -187500.02, -187500.02, -187500.02, -0.388, -0.062, 0.962, 23:16:31.600
8, -13867.07, 12602.05, 14982.96, 136783.70, -187500.02, -187500.02, -187500.02, -187500.02, 0.000, 0.000, 0.000, 23:16:31.601
9, -18748.26, 11223.48, 13611.14, 135383.53, -187500.02, -187500.02, -187500.02, -187500.02, 0.000, 0.000, 0.000, 23:16:31.601
10, -25147.84, 7096.19, 12692.30, 130856.23, -187500.02, -187500.02, -187500.02, -187500.02, 0.000, 0.000, 0.000, 23:16:31.601
11, -25844.11, 7594.90, 11959.23, 122577.95, -187500.02, -187500.02, -187500.02, -187500.02, 0.000, 0.000, 0.000, 23:16:31.601
12, -22384.06, 11198.85, 10825.60, 109256.33, -187500.02, -187500.02, -187500.02, -187500.02, 0.000, 0.000, 0.000, 23:16:31.601
13, -23406.88, 10528.27, 9634.76, 98146.87, -187500.02, -187500.02, -187500.02, -187500.02, 0.000, 0.000, 0.000, 23:16:31.601
14, -28846.00, 6303.62, 8969.71, 93853.70, -187500.02, -187500.02, -187500.02, -187500.02, 0.000, 0.000, 0.000, 23:16:31.601
15, -30724.62, 5800.90, 8457.99, 90026.41, -187500.02, -187500.02, -187500.02, -187500.02, 0.000, 0.000, 0.000, 23:16:31.601
16, -27706.01, 9405.37, 7477.62, 80816.35, -187500.02, -187500.02, -187500.02, -187500.02, 0.000, 0.000, 0.000, 23:16:31.602
17, -27748.75, 9824.20, 6447.63, 71901.05, -187500.02, -187500.02, -187500.02, -187500.02, -0.396, -0.042, 0.928, 23:16:31.602
18, -32387.03, 6025.72, 6136.02, 69400.84, -187500.02, -187500.02, -187500.02, -187500.02, 0.000, 0.000, 0.000, 23:16:31.602
19, -34169.71, 4846.33, 6047.44, 68502.08, -187500.02, -187500.02, -187500.02, -187500.02, 0.000, 0.000, 0.000, 23:16:31.602
20, -30705.30, 8437.92, 5224.12, 62107.43, -187500.02, -187500.02, -187500.02, -187500.02, 0.000, 0.000, 0.000, 23:16:31.602
21, -29455.44, 10015.17, 4101.90, 54407.83, -187500.02, -187500.02, -187500.02, -187500.02, 0.000, 0.000, 0.000, 23:16:31.602
22, -33620.38, 6711.54, 3691.01, 53243.71, -187500.02, -187500.02, -187500.02, -187500.02, 0.000, 0.000, 0.000, 23:16:31.602
23, -36360.52, 4787.30, 3628.76, 55019.06, -187500.02, -187500.02, -187500.02, -187500.02, 0.000, 0.000, 0.000, 23:16:31.602
24, -33288.50, 8090.73, 2871.66, 50534.79, -187500.02, -187500.02, -187500.02, -187500.02, 0.000, 0.000, 0.000, 23:16:31.603
25, -30975.31, 10638.85, 1649.09, 42116.38, -187500.02, -187500.02, -187500.02, -187500.02, 0.000, 0.000, 0.000, 23:16:31.603
26, -34562.52, 7836.16, 1036.63, 40519.49, -187500.02, -187500.02, -187500.02, -187500.02, 0.000, 0.000, 0.000, 23:16:31.603
27, -38073.27, 5066.22, 949.93, 44318.59, -187500.02, -187500.02, -187500.02, -187500.02, -0.404, -0.046, 0.914, 23:16:31.603
28, -35437.91, 7714.35, 299.20, 41910.48, -187500.02, -187500.02, -187500.02, -187500.02, 0.000, 0.000, 0.000, 23:16:31.603
29, -31945.29, 11034.61, -999.35, 33191.80, -187500.02, -187500.02, -187500.02, -187500.02, 0.000, 0.000, 0.000, 23:16:31.603
30, -34401.93, 9195.57, -1776.90, 29992.87, -187500.02, -187500.02, -187500.02, -187500.02, 0.000, 0.000, 0.000, 23:16:31.603
31, -38264.49, 6082.56, -1788.07, 33852.30, -187500.02, -187500.02, -187500.02, -187500.02, 0.000, 0.000, 0.000, 23:16:31.603
32, -36095.20, 8091.85, -2199.68, 33137.53, -187500.02, -187500.02, -187500.02, -187500.02, 0.000, 0.000, 0.000, 23:16:31.604
33, -31582.05, 12078.84, -3437.83, 24685.31, -187500.02, -187500.02, -187500.02, -187500.02, 0.000, 0.000, 0.000, 23:16:31.604
34, -32271.31, 11172.52, -4360.04, 20108.50, -187500.02, -187500.02, -187500.02, -187500.02, 0.000, 0.000, 0.000, 23:16:31.604
35, -34439.43, 7566.04, -4415.74, 24089.86, -187500.02, -187500.02, -187500.02, -187500.02, 0.000, 0.000, 0.000, 23:16:31.604
36, -29769.59, 8347.73, -4638.32, 25923.13, -187500.02, -187500.02, -187500.02, -187500.02, -0.404, -0.054, 0.940, 23:16:31.604
37, -22876.83, 12526.12, -5790.62, 19419.78, -187500.02, -187500.02, -187500.02, -187500.02, 0.000, 0.000, 0.000, 23:16:31.604
38, -21396.07, 12706.74, -6873.41, 14814.78, -187500.02, -187500.02, -187500.02, -187500.02, 0.000, 0.000, 0.000, 23:16:31.604
39, -24198.38, 9040.45, -7040.15, 19307.73, -187500.02, -187500.02, -187500.02, -187500.02, 0.000, 0.000, 0.000, 23:16:31.604
40, -23358.82, 8788.50, -7149.07, 23671.28, -187500.02, -187500.02, -187500.02, -187500.02, 0.000, 0.000, 0.000, 23:16:31.605
41, -17940.38, 12962.20, -8157.43, 19023.81, -187500.02, -187500.02, -187500.02, -187500.02, 0.000, 0.000, 0.000, 23:16:31.605
42, -15626.01, 14229.03, -9353.00, 13732.40, -187500.02, -187500.02, -187500.02, -187500.02, 0.000, 0.000, 0.000, 23:16:31.605
43, -18460.24, 10921.02, -9720.26, 17520.97, -187500.02, -187500.02, -187500.02, -187500.02, 0.000, 0.000, 0.000, 23:16:31.605
44, -19509.14, 9852.16, -9862.75, 23384.82, -187500.02, -187500.02, -187500.02, -187500.02, 0.000, 0.000, 0.000, 23:16:31.606
45, -15432.31, 13681.23, -10933.44, 20341.79, -187500.02, -187500.02, -187500.02, -187500.02, 0.000, 0.000, 0.000, 23:16:31.606
46, -12957.84, 16422.14, -12456.76, 14154.44, -187500.02, -187500.02, -187500.02, -187500.02, -0.416, -0.054, 0.948, 23:16:31.606
47, -16190.46, 15633.39, -13024.63, 16468.25, -187500.02, -187500.02, -187500.02, -187500.02, 0.000, 0.000, 0.000, 23:16:31.607
48, -18393.16, 15201.82, -12918.77, 23053.97, -187500.02, -187500.02, -187500.02, -187500.02, 0.000, 0.000, 0.000, 23:16:31.607
49, -14229.17, 18260.10, -13868.88, 21618.85, -187500.02, -187500.02, -187500.02, -187500.02, 0.000, 0.000, 0.000, 23:16:31.607
50, -9942.48, 21082.97, -16062.50, 14920.04, -187500.02, -187500.02, -187500.02, -187500.02, 0.000, 0.000, 0.000, 23:16:31.607
51, -11637.64, 20218.85, -17176.44, 15531.89, -187500.02, -187500.02, -187500.02, -187500.02, 0.000, 0.000, 0.000, 23:16:31.607
52, -14544.32, 19164.85, -17290.93, 22282.14, -187500.02, -187500.02, -187500.02, -187500.02, 0.000, 0.000, 0.000, 23:16:31.607
53, -11535.96, 21938.73, -20450.53, 22365.85, -187500.02, -187500.02, -187500.02, -187500.02, 0.000, 0.000, 0.000, 23:16:31.607
54, -6884.99, 25620.28, -26642.09, 15310.32, -187500.02, -187500.02, -187500.02, -187500.02, 0.000, 0.000, 0.000, 23:16:31.607
55, -9209.97, 26281.69, -27552.12, 14049.59, -187500.02, -187500.02, -187500.02, -187500.02, 0.000, 0.000, 0.000, 23:16:31.608
56, -14375.57, 25652.07, -20595.54, 20897.38, -187500.02, -187500.02, -187500.02, -187500.02, -0.338, -0.026, 0.936, 23:16:31.608
57, -12312.10, 26292.69, -18540.64, 22948.27, -187500.02, -187500.02, -187500.02, -187500.02, 0.000, 0.000, 0.000, 23:16:31.608
58, -5069.06, 24268.94, -25649.50, 16029.82, -187500.02, -187500.02, -187500.02, -187500.02, 0.000, 0.000, 0.000, 23:16:31.608
59, -1513.91, 22716.03, -28686.34, 13104.49, -187500.02, -187500.02, -187500.02, -187500.02, 0.000, 0.000, 0.000, 23:16:31.608
60, 1108.15, 29673.84, -21668.45, 20020.50, -187500.02, -187500.02, -187500.02, -187500.02, 0.000, 0.000, 0.000, 23:16:31.608
61, 4529.31, 34384.87, -16940.25, 24689.42, -187500.02, -187500.02, -187500.02, -187500.02, 0.000, 0.000, 0.000, 23:16:31.608
62, 4639.98, 34468.16, -16975.77, 24671.05, -187500.02, -187500.02, -187500.02, -187500.02, 0.000, 0.000, 0.000, 23:16:31.608
63, 4501.95, 34315.58, -17246.09, 24433.23, -187500.02, -187500.02, -187500.02, -187500.02, 0.000, 0.000, 0.000, 23:16:31.608
64, 4383.27, 34223.16, -17396.16, 24391.47, -187500.02, -187500.02, -187500.02, -187500.02, 0.000, 0.000, 0.000, 23:16:31.609
65, 4313.82, 34155.66, -17556.04, 24299.79, -187500.02, -187500.02, -187500.02, -187500.02, -0.308, -0.128, 0.978, 23:16:31.609
66, 4219.43, 34030.62, -17819.23, 24042.38, -187500.02, -187500.02, -187500.02, -187500.02, 0.000, 0.000, 0.000, 23:16:31.609
67, 4103.71, 33896.82, -18077.49, 23810.53, -187500.02, -187500.02, -187500.02, -187500.02, 0.000, 0.000, 0.000, 23:16:31.609
68, 4061.31, 33861.35, -18210.17, 23742.04, -187500.02, -187500.02, -187500.02, -187500.02, 0.000, 0.000, 0.000, 23:16:31.609
69, 4032.43, 33835.06, -18338.29, 23671.59, -187500.02, -187500.02, -187500.02, -187500.02, 0.000, 0.000, 0.000, 23:16:31.609
70, 3893.16, 33680.05, -18612.92, 23433.17, -187500.02, -187500.02, -187500.02, -187500.02, 0.000, 0.000, 0.000, 23:16:31.609
71, 3733.64, 33505.06, -18907.36, 23176.43, -187500.02, -187500.02, -187500.02, -187500.02, 0.000, 0.000, 0.000, 23:16:31.609
72, 3703.26, 33474.29, -19047.46, 23085.39, -187500.02, -187500.02, -187500.02, -187500.02, 0.000, 0.000, 0.000, 23:16:31.610
73, 3703.19, 33478.06, -19153.34, 23030.37, -187500.02, -187500.02, -187500.02, -187500.02, 0.000, 0.000, 0.000, 23:16:32.080
74, 3562.60, 33329.13, -19421.88, 22804.75, -187500.02, -187500.02, -187500.02, -187500.02, 0.000, 0.000, 0.000, 23:16:32.081
75, 3368.05, 33123.41, -19749.75, 22517.30, -187500.02, -187500.02, -187500.02, -187500.02, -0.396, -0.048, 0.942, 23:16:32.081
76, 3313.22, 33067.32, -19918.33, 22394.28, -187500.02, -187500.02, -187500.02, -187500.02, 0.000, 0.000, 0.000, 23:16:32.081
77, 3328.20, 33084.47, -20010.73, 22348.90, -187500.02, -187500.02, -187500.02, -187500.02, 0.000, 0.000, 0.000, 23:16:32.082
78, 3204.86, 32952.95, -20260.83, 22142.17, -187500.02, -187500.02, -187500.02, -187500.02, 0.000, 0.000, 0.000, 23:16:32.082
79, 2989.86, 32723.51, -20611.62, 21833.18, -187500.02, -187500.02, -187500.02, -187500.02, 0.000, 0.000, 0.000, 23:16:32.083
80, 2904.14, 32634.98, -20816.38, 21672.41, -187500.02, -187500.02, -187500.02, -187500.02, 0.000, 0.000, 0.000, 23:16:32.083
81, 2925.84, 32663.50, -20901.16, 21631.41, -187500.02, -187500.02, -187500.02, -187500.02, 0.000, 0.000, 0.000, 23:16:32.083
82, 2828.61, 32562.87, -21120.86, 21453.25, -187500.02, -187500.02, -187500.02, -187500.02, 0.000, 0.000, 0.000, 23:16:32.084
83, 2602.17, 32322.79, -21485.32, 21131.21, -187500.02, -187500.02, -187500.02, -187500.02, 0.000, 0.000, 0.000, 23:16:32.084
84, 2477.74, 32195.34, -21732.40, 20927.56, -187500.02, -187500.02, -187500.02, -187500.02, 0.000, 0.000, 0.000, 23:16:32.084
85, 2496.49, 32221.33, -21819.15, 20883.03, -187500.02, -187500.02, -187500.02, -187500.02, -0.406, 0.012, 0.922, 23:16:32.085
86, 2425.41, 32149.36, -22008.85, 20736.63, -187500.02, -187500.02, -187500.02, -187500.02, 0.000, 0.000, 0.000, 23:16:32.085
87, 2193.00, 31905.30, -22377.98, 20411.54, -187500.02, -187500.02, -187500.02, -187500.02, 0.000, 0.000, 0.000, 23:16:32.086
88, 2033.92, 31740.73, -22663.48, 20167.84, -187500.02, -187500.02, -187500.02, -187500.02, 0.000, 0.000, 0.000, 23:16:32.086
89, 2045.12, 31758.99, -22759.80, 20111.76, -187500.02, -187500.02, -187500.02, -187500.02, 0.000, 0.000, 0.000, 23:16:32.086
90, 2003.72, 31718.78, -22918.72, 19995.54, -187500.02, -187500.02, -187500.02, -187500.02, 0.000, 0.000, 0.000, 23:16:32.087
91, 1773.92, 31479.01, -23284.95, 19674.14, -187500.02, -187500.02, -187500.02, -187500.02, 0.000, 0.000, 0.000, 23:16:32.087
92, 1574.41, 31273.44, -23616.16, 19386.36, -187500.02, -187500.02, -187500.02, -187500.02, 0.000, 0.000, 0.000, 23:16:32.088
93, 1569.27, 31273.24, -23733.95, 19309.74, -187500.02, -187500.02, -187500.02, -187500.02, 0.000, 0.000, 0.000, 23:16:32.088
94, 1555.14, 31263.63, -23862.21, 19221.14, -187500.02, -187500.02, -187500.02, -187500.02, 0.000, 0.000, 0.000, 23:16:32.088
95, 1337.93, 31039.98, -24213.51, 18912.55, -187500.02, -187500.02, -187500.02, -187500.02, -0.414, 0.012, 0.948, 23:16:32.089
96, 1104.69, 30799.32, -24581.51, 18588.18, -187500.02, -187500.02, -187500.02, -187500.02, 0.000, 0.000, 0.000, 23:16:32.089
97, 1074.47, 30774.28, -24727.20, 18481.79, -187500.02, -187500.02, -187500.02, -187500.02, 0.000, 0.000, 0.000, 23:16:32.090
98, 1086.21, 30792.52, -24829.12, 18419.85, -187500.02, -187500.02, -187500.02, -187500.02, 0.000, 0.000, 0.000, 23:16:32.090
99, 888.62, 30592.52, -25158.92, 18137.37, -187500.02, -187500.02, -187500.02, -187500.02, 0.000, 0.000, 0.000, 23:16:32.090
100, 619.57, 30318.42, -25563.04, 17781.10, -187500.02, -187500.02, -187500.02, -187500.02, 0.000, 0.000, 0.000, 23:16:32.091
101, 554.73, 30255.99, -25747.06, 17636.67, -187500.02, -187500.02, -187500.02, -187500.02, 0.000, 0.000, 0.000, 23:16:32.091
102, 585.12, 30294.17, -25828.78, 17591.76, -187500.02, -187500.02, -187500.02, -187500.02, 0.000, 0.000, 0.000, 23:16:32.092
103, 419.48, 30128.32, -26121.97, 17342.18, -187500.02, -187500.02, -187500.02, -187500.02, 0.000, 0.000, 0.000, 23:16:32.092
104, 131.07, 29834.73, -26545.98, 16964.73, -187500.02, -187500.02, -187500.02, -187500.02, -0.394, -0.008, 0.952, 23:16:32.092
105, 25.10, 29731.60, -26773.32, 16776.75, -187500.02, -187500.02, -187500.02, -187500.02, 0.000, 0.000, 0.000, 23:16:32.092
106, 67.52, 29781.91, -26844.71, 16739.85, -187500.02, -187500.02, -187500.02, -187500.02, 0.000, 0.000, 0.000, 23:16:32.093
107, -60.73, 29655.98, -27097.20, 16527.84, -187500.02, -187500.02, -187500.02, -187500.02, 0.000, 0.000, 0.000, 23:16:32.093
108, -365.94, 29348.09, -27534.87, 16137.11, -187500.02, -187500.02, -187500.02, -187500.02, 0.000, 0.000, 0.000, 23:16:32.093
109, -520.19, 29197.81, -27813.28, 15900.87, -187500.02, -187500.02, -187500.02, -187500.02, 0.000, 0.000, 0.000, 23:16:32.094
110, -478.75, 29247.48, -27889.30, 15861.04, -187500.02, -187500.02, -187500.02, -187500.02, 0.000, 0.000, 0.000, 23:16:32.094
111, -564.65, 29164.64, -28097.66, 15693.03, -187500.02, -187500.02, -187500.02, -187500.02, 0.000, 0.000, 0.000, 23:16:32.094
112, -870.18, 28857.87, -28532.09, 15307.48, -187500.02, -187500.02, -187500.02, -187500.02, 0.000, 0.000, 0.000, 23:16:32.095
113, -1073.87, 28658.11, -28859.72, 15024.35, -187500.02, -187500.02, -187500.02, -187500.02, 0.000, 0.000, 0.000, 23:16:32.095
114, -1043.49, 28697.40, -28949.75, 14968.36, -187500.02, -187500.02, -187500.02, -187500.02, -0.398, -0.010, 0.940, 23:16:32.096
115, -1085.49, 28658.98, -29117.30, 14837.58, -187500.02, -187500.02, -187500.02, -187500.02, 0.000, 0.000, 0.000, 23:16:32.096
116, -1383.48, 28361.37, -29541.88, 14464.37, -187500.02, -187500.02, -187500.02, -187500.02, 0.000, 0.000, 0.000, 23:16:32.096
117, -1636.19, 28109.66, -29917.50, 14136.03, -187500.02, -187500.02, -187500.02, -187500.02, 0.000, 0.000, 0.000, 23:16:32.097
118, -1629.24, 28121.51, -30031.20, 14054.06, -187500.02, -187500.02, -187500.02, -187500.02, 0.000, 0.000, 0.000, 23:16:32.097
119, -1633.15, 28122.52, -30157.51, 13960.65, -187500.02, -187500.02, -187500.02, -187500.02, 0.000, 0.000, 0.000, 23:16:32.098
120, -1903.50, 27854.03, -30551.28, 13616.08, -187500.02, -187500.02, -187500.02, -187500.02, 0.000, 0.000, 0.000, 23:16:32.098
121, -2195.46, 27562.25, -30967.54, 13250.96, -187500.02, -187500.02, -187500.02, -187500.02, 0.000, 0.000, 0.000, 23:16:32.098
122, -2224.69, 27535.74, -31121.23, 13131.85, -187500.02, -187500.02, -187500.02, -187500.02, 0.000, 0.000, 0.000, 23:16:32.099
123, -2200.40, 27567.50, -31221.05, 13063.48, -187500.02, -187500.02, -187500.02, -187500.02, 0.000, 0.000, 0.000, 23:16:32.099
124, -2438.96, 27337.35, -31579.93, 12752.43, -187500.02, -187500.02, -187500.02, -187500.02, -0.404, -0.008, 0.938, 23:16:32.100
125, -2765.04, 27018.30, -32025.60, 12358.97, -187500.02, -187500.02, -187500.02, -187500.02, 0.000, 0.000, 0.000, 23:16:32.100
126, -2841.20, 26948.11, -32225.38, 12195.22, -187500.02, -187500.02, -187500.02, -187500.02, 0.000, 0.000, 0.000, 23:16:32.100
127, -2794.66, 26999.36, -32305.69, 12143.23, -187500.02, -187500.02, -187500.02, -187500.02, 0.000, 0.000, 0.000, 23:16:32.100
128, -2984.78, 26815.07, -32618.14, 11876.44, -187500.02, -187500.02, -187500.02, -187500.02, 0.000, 0.000, 0.000, 23:16:32.101
129, -3331.97, 26473.49, -33085.27, 11467.50, -187500.02, -187500.02, -187500.02, -187500.02, 0.000, 0.000, 0.000, 23:16:32.101
130, -3461.23, 26349.67, -33338.18, 11254.71, -187500.02, -187500.02, -187500.02, -187500.02, 0.000, 0.000, 0.000, 23:16:32.102
131, -3404.93, 26409.01, -33410.40, 11206.11, -187500.02, -187500.02, -187500.02, -187500.02, 0.000, 0.000, 0.000, 23:16:32.102
132, -3548.76, 26271.19, -33676.77, 10982.35, -187500.02, -187500.02, -187500.02, -187500.02, 0.000, 0.000, 0.000, 23:16:32.102
133, -3910.39, 25919.60, -34151.70, 10568.53, -187500.02, -187500.02, -187500.02, -187500.02, 0.000, 0.000, 0.000, 23:16:32.102
134, -4097.28, 25741.72, -34457.61, 10306.79, -187500.02, -187500.02, -187500.02, -187500.02, -0.402, -0.006, 0.944, 23:16:32.103
135, -4038.78, 25801.94, -34533.82, 10250.62, -187500.02, -187500.02, -187500.02, -187500.02, 0.000, 0.000, 0.000, 23:16:32.103
136, -4125.06, 25719.26, -34747.21, 10071.61, -187500.02, -187500.02, -187500.02, -187500.02, 0.000, 0.000, 0.000, 23:16:32.104
137, -4485.68, 25372.00, -35215.44, 9667.08, -187500.02, -187500.02, -187500.02, -187500.02, 0.000, 0.000, 0.000, 23:16:32.104
138, -4730.46, 25137.93, -35575.04, 9358.52, -187500.02, -187500.02, -187500.02, -187500.02, 0.000, 0.000, 0.000, 23:16:32.104
139, -4684.37, 25183.80, -35668.89, 9284.98, -187500.02, -187500.02, -187500.02, -187500.02, 0.000, 0.000, 0.000, 23:16:32.104
140, -4719.15, 25151.59, -35838.63, 9144.90, -187500.02, -187500.02, -187500.02, -187500.02, 0.000, 0.000, 0.000, 23:16:32.105
141, -5065.58, 24819.89, -36288.91, 8758.62, -187500.02, -187500.02, -187500.02, -187500.02, 0.000, 0.000, 0.000, 23:16:32.105
142, -5368.64, 24530.23, -36699.24, 8406.80, -187500.02, -187500.02, -187500.02, -187500.02, 0.000, 0.000, 0.000, 23:16:32.106
143, -5352.06, 24545.88, -36822.96, 8300.45, -187500.02, -187500.02, -187500.02, -187500.02, -0.402, -0.008, 0.934, 23:16:32.106
144, -5333.75, 24562.80, -36945.80, 8192.99, -187500.02, -187500.02, -187500.02, -187500.02, 0.000, 0.000, 0.000, 23:16:32.106
145, -5648.04, 24265.16, -37362.35, 7839.00, -187500.02, -187500.02, -187500.02, -187500.02, 0.000, 0.000, 0.000, 23:16:32.107
146, -6006.20, 23926.67, -37815.93, 7453.28, -187500.02, -187500.02, -187500.02, -187500.02, 0.000, 0.000, 0.000, 23:16:32.107
147, -6035.24, 23899.51, -37981.71, 7308.13, -187500.02, -187500.02, -187500.02, -187500.02, 0.000, 0.000, 0.000, 23:16:32.108
148, -5977.12, 23954.99, -38073.11, 7225.56, -187500.02, -187500.02, -187500.02, -187500.02, 0.000, 0.000, 0.000, 23:16:32.108
149, -6245.61, 23702.01, -38448.89, 6908.61, -187500.02, -187500.02, -187500.02, -187500.02, 0.000, 0.000, 0.000, 23:16:32.108
150, -6645.89, 23323.62, -38936.78, 6498.05, -187500.02, -187500.02, -187500.02, -187500.02, 0.000, 0.000, 0.000, 23:16:32.108
151, -6729.13, 23243.98, -39152.48, 6310.57, -187500.02, -187500.02, -187500.02, -187500.02, 0.000, 0.000, 0.000, 23:16:32.109
152, -6635.29, 23329.83, -39217.74, 6244.99, -187500.02, -187500.02, -187500.02, -187500.02, 0.000, 0.000, 0.000, 23:16:32.109
153, -6843.97, 23132.85, -39540.12, 5970.89, -187500.02, -187500.02, -187500.02, -187500.02, -0.402, -0.014, 0.940, 23:16:32.109
154, -7271.25, 22733.71, -40048.00, 5546.43, -187500.02, -187500.02, -187500.02, -187500.02, 0.000, 0.000, 0.000, 23:16:32.109
155, -7420.82, 22592.52, -40322.39, 5309.79, -187500.02, -187500.02, -187500.02, -187500.02, 0.000, 0.000, 0.000, 23:16:32.109
156, -7318.54, 22684.25, -40383.39, 5245.31, -187500.02, -187500.02, -187500.02, -187500.02, 0.000, 0.000, 0.000, 23:16:32.110
157, -7462.40, 22548.30, -40651.00, 5013.18, -187500.02, -187500.02, -187500.02, -187500.02, 0.000, 0.000, 0.000, 23:16:32.110
158, -7895.55, 22142.44, -41164.25, 4582.87, -187500.02, -187500.02, -187500.02, -187500.02, 0.000, 0.000, 0.000, 23:16:32.110
159, -8118.53, 21934.41, -41498.14, 4298.35, -187500.02, -187500.02, -187500.02, -187500.02, 0.000, 0.000, 0.000, 23:16:32.110
160, -8023.72, 22023.02, -41562.87, 4229.46, -187500.02, -187500.02, -187500.02, -187500.02, 0.000, 0.000, 0.000, 23:16:32.111
161, -8099.02, 21951.40, -41771.70, 4044.59, -187500.02, -187500.02, -187500.02, -187500.02, 0.000, 0.000, 0.000, 23:16:32.111
162, -8521.33, 21555.89, -42276.54, 3622.55, -187500.02, -187500.02, -187500.02, -187500.02, 0.000, 0.000, 0.000, 23:16:32.111
163, -8812.40, 21283.38, -42671.36, 3289.80, -187500.02, -187500.02, -187500.02, -187500.02, -0.406, -0.018, 0.918, 23:16:32.112
164, -8742.19, 21349.34, -42757.25, 3206.11, -187500.02, -187500.02, -187500.02, -187500.02, 0.000, 0.000, 0.000, 23:16:32.112
165, -8754.78, 21336.71, -42912.38, 3065.94, -187500.02, -187500.02, -187500.02, -187500.02, 0.000, 0.000, 0.000, 23:16:32.112
166, -9152.97, 20964.86, -43395.95, 2659.92, -187500.02, -187500.02, -187500.02, -187500.02, 0.000, 0.000, 0.000, 23:16:32.112
167, -9511.11, 20631.35, -43846.43, 2279.32, -187500.02, -187500.02, -187500.02, -187500.02, 0.000, 0.000, 0.000, 23:16:32.112
168, -9475.37, 20664.79, -43960.92, 2170.02, -187500.02, -187500.02, -187500.02, -187500.02, 0.000, 0.000, 0.000, 23:16:32.112
169, -9427.09, 20708.13, -44064.94, 2070.69, -187500.02, -187500.02, -187500.02, -187500.02, 0.000, 0.000, 0.000, 23:16:32.113
170, -9780.12, 20375.02, -44514.32, 1694.91, -187500.02, -187500.02, -187500.02, -187500.02, 0.000, 0.000, 0.000, 23:16:32.113
171, -10197.94, 19982.62, -45019.18, 1272.51, -187500.02, -187500.02, -187500.02, -187500.02, 0.000, 0.000, 0.000, 23:16:32.113
172, -10216.00, 19966.66, -45179.71, 1126.66, -187500.02, -187500.02, -187500.02, -187500.02, -0.384, 0.034, 0.922, 23:16:32.113
173, -10109.98, 20066.70, -45234.05, 1065.37, -187500.02, -187500.02, -187500.02, -187500.02, 0.000, 0.000, 0.000, 23:16:32.114
174, -10411.73, 19783.39, -45639.76, 725.11, -187500.02, -187500.02, -187500.02, -187500.02, 0.000, 0.000, 0.000, 23:16:32.114
175, -10912.14, 19315.13, -46216.61, 245.65, -187500.02, -187500.02, -187500.02, -187500.02, 0.000, 0.000, 0.000, 23:16:32.114
176, -10180.59, 20028.39, -45621.96, 852.70, -187500.02, -187500.02, -187500.02, -187500.02, 0.000, 0.000, 0.000, 23:16:32.114
177, -3650.02, 26369.18, -39278.63, 7070.84, -187500.02, -187500.02, -187500.02, -187500.02, 0.000, 0.000, 0.000, 23:16:32.115
178, -3292.05, 26721.46, -39045.95, 7333.09, -187500.02, -187500.02, -187500.02, -187500.02, 0.000, 0.000, 0.000, 23:16:32.115
179, -11887.37, 18383.28, -47702.31, -1097.49, -187500.02, -187500.02, -187500.02, -187500.02, 0.000, 0.000, 0.000, 23:16:32.115
180, -9843.42, 20375.98, -45793.70, 805.18, -187500.02, -187500.02, -187500.02, -187500.02, 0.000, 0.000, 0.000, 23:16:32.115
