%OpenBCI Raw EEG Data
%
%Sample Rate = 250.0 Hz
%First Column = SampleIndex
%Last Column = Timestamp 
%Other Columns = EEG data in microvolts followed by Accel Data (in G) interleaved with Aux Data
0, -155873.78, -56705.37, -167060.22, -139938.77, -146926.69, -152490.09, -136128.05, -178188.92, -0.100, 0.092, 0.982, 19:16:24.540
1, -155953.39, -55365.61, -167136.53, -140088.25, -147001.63, -152637.06, -136197.59, -178251.11, 0.000, 0.000, 0.000, 19:16:24.547
2, -155972.13, -55979.76, -167154.56, -140125.52, -147019.67, -152673.61, -136214.13, -178266.41, 0.000, 0.000, 0.000, 19:16:24.548
3, -155905.25, -57207.97, -167089.88, -140000.77, -146956.44, -152551.23, -136155.02, -178215.09, 0.000, 0.000, 0.000, 19:16:24.548
4, -155861.55, -57067.38, -167047.25, -139916.89, -146914.25, -152468.91, -136115.80, -178181.38, 0.000, 0.000, 0.000, 19:16:24.549
5, -155938.92, -55318.24, -167121.33, -140063.14, -146986.61, -152612.61, -136183.05, -178241.31, 0.000, 0.000, 0.000, 19:16:24.549
6, -155969.59, -55826.41, -167150.94, -140122.66, -147015.89, -152671.22, -136210.13, -178266.02, -0.048, 0.064, 0.988, 19:16:24.550
7, -155920.41, -56950.59, -167103.41, -140030.19, -146969.53, -152580.53, -136166.80, -178228.88, 0.000, 0.000, 0.000, 19:16:24.550
8, -155856.09, -57430.10, -167040.92, -139906.05, -146908.20, -152458.92, -136109.78, -178179.61, 0.000, 0.000, 0.000, 19:16:24.551
9, -155927.16, -55498.13, -167108.97, -140038.66, -146974.53, -152589.23, -136171.42, -178234.95, 0.000, 0.000, 0.000, 19:16:24.551
10, -155970.42, -55772.68, -167150.63, -140120.98, -147015.73, -152670.25, -136209.53, -178269.48, 0.000, 0.000, 0.000, 19:16:24.552
11, -155938.73, -56700.81, -167119.89, -140061.19, -146985.95, -152611.53, -136181.69, -178246.02, 0.000, 0.000, 0.000, 19:16:24.552
12, -155855.00, -57581.38, -167038.78, -139904.80, -146906.19, -152457.95, -136107.23, -178180.84, 0.000, 0.000, 0.000, 19:16:24.553
13, -155908.64, -55644.71, -167089.86, -140005.78, -146955.92, -152557.33, -136153.34, -178221.98, 0.000, 0.000, 0.000, 19:16:24.553
14, -155962.98, -55592.72, -167142.11, -140109.83, -147007.38, -152659.59, -136201.00, -178264.86, 0.000, 0.000, 0.000, 19:16:24.553
15, -155946.31, -56462.54, -167125.94, -140079.25, -146991.91, -152629.59, -136186.33, -178252.88, 0.000, 0.000, 0.000, 19:16:24.554
16, -155858.13, -57703.86, -167040.59, -139913.00, -146908.33, -152466.63, -136108.47, -178185.06, -0.020, 0.054, 0.990, 19:16:24.554
17, -155889.84, -56058.60, -167070.48, -139971.84, -146937.19, -152524.75, -136135.23, -178209.36, 0.000, 0.000, 0.000, 19:16:24.555
18, -155955.25, -55504.72, -167133.33, -140096.58, -146998.86, -152647.25, -136192.33, -178260.55, 0.000, 0.000, 0.000, 19:16:24.555
19, -155952.19, -56221.96, -167130.27, -140092.45, -146996.22, -152642.98, -136189.52, -178258.83, 0.000, 0.000, 0.000, 19:16:24.556
20, -155866.06, -57580.15, -167046.97, -139930.25, -146914.55, -152483.84, -136113.48, -178192.64, 0.000, 0.000, 0.000, 19:16:24.556
21, -155869.48, -56389.20, -167049.58, -139936.98, -146916.69, -152490.69, -136115.28, -178194.77, 0.000, 0.000, 0.000, 19:16:24.556
22, -155942.34, -55387.98, -167119.61, -140076.72, -146985.25, -152628.03, -136178.88, -178251.38, 0.000, 0.000, 0.000, 19:16:24.557
23, -155952.16, -56066.13, -167129.03, -140096.66, -146994.81, -152647.61, -136187.44, -178259.88, 0.000, 0.000, 0.000, 19:16:24.557
24, -155876.61, -57409.83, -167055.95, -139953.41, -146923.38, -152506.97, -136120.86, -178202.30, 0.000, 0.000, 0.000, 19:16:24.558
25, -155853.86, -56800.68, -167033.47, -139908.97, -146900.89, -152463.55, -136099.97, -178184.70, 0.000, 0.000, 0.000, 19:16:24.559
26, -155933.19, -55353.07, -167109.70, -140058.48, -146975.48, -152610.63, -136169.27, -178246.59, -0.012, 0.050, 0.994, 19:16:24.560
27, -155953.75, -55925.56, -167129.38, -140099.61, -146995.17, -152651.09, -136187.13, -178263.03, 0.000, 0.000, 0.000, 19:16:24.560
28, -155890.06, -57159.55, -167067.73, -139980.97, -146934.97, -152534.67, -136130.86, -178214.19, 0.000, 0.000, 0.000, 19:16:24.560
29, -155839.28, -57182.27, -167018.16, -139885.53, -146886.05, -152441.00, -136085.27, -178174.58, 0.000, 0.000, 0.000, 19:16:24.561
30, -155914.25, -55341.96, -167090.03, -140028.38, -146956.09, -152581.41, -136150.17, -178232.47, 0.000, 0.000, 0.000, 19:16:24.561
31, -155948.81, -55805.46, -167123.41, -140093.91, -146989.14, -152645.89, -136180.72, -178260.45, 0.000, 0.000, 0.000, 19:16:24.562
32, -155903.97, -56904.21, -167079.94, -140009.00, -146946.94, -152562.55, -136141.41, -178226.80, 0.000, 0.000, 0.000, 19:16:24.562
33, -155833.42, -57487.43, -167011.47, -139875.45, -146879.61, -152431.61, -136078.78, -178172.16, 0.000, 0.000, 0.000, 19:16:24.562
34, -155900.08, -55534.56, -167075.16, -140001.20, -146941.75, -152555.14, -136136.41, -178223.73, 0.000, 0.000, 0.000, 19:16:24.563
35, -155946.27, -55713.98, -167119.63, -140088.80, -146985.64, -152641.33, -136177.02, -178260.67, 0.000, 0.000, 0.000, 19:16:24.563
36, -155913.67, -56622.31, -167087.95, -140031.03, -146954.91, -152584.80, -136147.88, -178235.52, -0.004, 0.048, 0.992, 19:16:24.563
37, -155828.13, -57627.76, -167004.98, -139870.95, -146873.38, -152427.63, -136071.83, -178168.86, 0.000, 0.000, 0.000, 19:16:24.564
38, -155877.58, -55723.03, -167052.03, -139963.92, -146919.05, -152519.02, -136114.08, -178206.73, 0.000, 0.000, 0.000, 19:16:24.564
39, -155935.16, -55514.15, -167107.64, -140073.33, -146973.69, -152626.69, -136164.77, -178252.39, 0.000, 0.000, 0.000, 19:16:24.565
40, -155921.50, -56357.78, -167094.28, -140048.56, -146961.06, -152602.42, -136152.77, -178242.77, 0.000, 0.000, 0.000, 19:16:24.565
41, -155830.03, -57654.94, -167005.59, -139878.91, -146874.02, -152435.78, -136071.53, -178171.63, 0.000, 0.000, 0.000, 19:16:24.565
42, -155856.27, -56103.03, -167030.20, -139927.69, -146897.72, -152483.80, -136093.55, -178191.66, 0.000, 0.000, 0.000, 19:16:24.566
43, -155927.28, -55451.57, -167098.75, -140059.84, -146965.05, -152613.86, -136156.14, -178248.05, 0.000, 0.000, 0.000, 19:16:24.566
44, -155927.48, -56181.09, -167098.75, -140061.30, -146965.39, -152615.41, -136156.25, -178249.09, 0.000, 0.000, 0.000, 19:16:24.566
45, -155839.23, -57551.07, -167013.33, -139898.31, -146881.69, -152455.45, -136077.84, -178180.41, 0.000, 0.000, 0.000, 19:16:24.567
46, -155836.11, -56474.21, -167009.53, -139893.28, -146877.48, -152450.61, -136073.75, -178177.17, -0.002, 0.044, 0.996, 19:16:24.567
47, -155913.83, -55331.90, -167084.25, -140038.95, -146950.69, -152593.72, -136141.92, -178238.42, 0.000, 0.000, 0.000, 19:16:24.568
48, -155928.61, -56041.48, -167098.75, -140066.17, -146965.22, -152620.52, -136155.33, -178251.42, 0.000, 0.000, 0.000, 19:16:24.568
49, -155855.83, -57357.95, -167028.34, -139928.00, -146896.42, -152485.08, -136091.31, -178195.92, 0.000, 0.000, 0.000, 19:16:24.568
50, -155825.09, -56897.50, -166998.03, -139870.63, -146866.30, -152428.81, -136063.20, -178171.58, 0.000, 0.000, 0.000, 19:16:24.569
51, -155903.20, -55325.77, -167072.95, -140018.91, -146939.72, -152574.59, -136131.17, -178232.27, 0.000, 0.000, 0.000, 19:16:24.569
52, -155927.17, -55867.33, -167096.16, -140065.66, -146962.73, -152620.48, -136152.16, -178251.72, 0.000, 0.000, 0.000, 19:16:24.569
53, -155868.31, -57056.49, -167039.19, -139954.77, -146907.22, -152511.73, -136100.34, -178206.97, 0.000, 0.000, 0.000, 19:16:24.570
54, -155814.52, -57223.62, -166986.77, -139851.89, -146855.47, -152411.00, -136052.19, -178165.44, 0.000, 0.000, 0.000, 19:16:24.570
55, -155886.77, -55395.54, -167055.88, -139990.88, -146922.84, -152547.50, -136114.61, -178220.83, 0.000, 0.000, 0.000, 19:16:24.571
56, -155921.58, -55782.53, -167089.41, -140058.80, -146956.03, -152614.28, -136145.16, -178248.52, -0.004, 0.042, 0.994, 19:16:24.571
57, -155880.59, -56765.32, -167049.69, -139980.75, -146917.41, -152537.73, -136109.16, -178217.88, 0.000, 0.000, 0.000, 19:16:24.571
58, -155805.67, -57440.45, -166977.03, -139839.91, -146845.84, -152399.48, -136042.53, -178159.73, 0.000, 0.000, 0.000, 19:16:24.572
59, -155869.08, -55543.61, -167037.53, -139959.64, -146904.80, -152517.28, -136097.23, -178208.58, 0.000, 0.000, 0.000, 19:16:24.572
60, -155917.89, -55689.95, -167084.45, -140051.88, -146951.06, -152608.03, -136140.09, -178247.38, 0.000, 0.000, 0.000, 19:16:24.572
61, -155891.05, -56553.20, -167058.42, -140002.94, -146925.88, -152560.06, -136116.23, -178227.27, 0.000, 0.000, 0.000, 19:16:24.573
62, -155803.81, -57648.23, -166974.09, -139839.92, -146843.00, -152400.09, -136038.92, -178159.69, 0.000, 0.000, 0.000, 19:16:24.574
63, -155850.97, -55834.41, -167018.98, -139926.77, -146886.61, -152485.50, -136079.56, -178196.30, 0.000, 0.000, 0.000, 19:16:24.575
64, -155912.75, -55494.17, -167078.53, -140042.41, -146945.25, -152599.20, -136133.97, -178245.45, 0.000, 0.000, 0.000, 19:16:24.575
65, -155900.48, -56239.31, -167066.47, -140021.66, -146933.84, -152578.91, -136122.88, -178236.53, -0.002, 0.044, 0.992, 19:16:24.576
66, -155813.45, -57565.13, -166982.17, -139856.45, -146851.17, -152416.83, -136046.06, -178169.69, 0.000, 0.000, 0.000, 19:16:24.576
67, -155836.25, -56184.26, -167003.59, -139896.95, -146871.67, -152456.69, -136065.25, -178187.59, 0.000, 0.000, 0.000, 19:16:24.576
68, -155905.14, -55437.51, -167069.81, -140028.59, -146936.61, -152586.09, -136125.45, -178241.34, 0.000, 0.000, 0.000, 19:16:24.577
69, -155909.97, -56148.36, -167074.34, -140037.00, -146941.59, -152594.55, -136129.86, -178246.45, 0.000, 0.000, 0.000, 19:16:24.577
70, -155826.59, -57496.71, -166993.70, -139880.45, -146862.73, -152440.88, -136056.25, -178182.36, 0.000, 0.000, 0.000, 19:16:24.577
71, -155816.39, -56593.74, -166983.31, -139863.31, -146851.94, -152424.16, -136045.94, -178173.45, 0.000, 0.000, 0.000, 19:16:24.577
72, -155895.50, -55337.31, -167059.30, -140011.13, -146926.44, -152569.50, -136115.25, -178235.55, 0.000, 0.000, 0.000, 19:16:24.578
73, -155911.77, -55988.10, -167074.95, -140041.98, -146942.20, -152599.98, -136129.72, -178249.48, 0.000, 0.000, 0.000, 19:16:24.578
74, -155838.06, -57253.59, -167003.56, -139905.47, -146872.44, -152465.94, -136064.41, -178192.55, 0.000, 0.000, 0.000, 19:16:24.578
75, -155802.58, -56947.59, -166968.70, -139838.36, -146837.75, -152400.16, -136032.13, -178164.70, -0.002, 0.040, 0.990, 19:16:24.578
76, -155882.73, -55345.84, -167045.67, -139988.36, -146912.95, -152547.66, -136102.09, -178227.27, 0.000, 0.000, 0.000, 19:16:24.579
77, -155909.58, -55895.77, -167071.55, -140040.02, -146938.70, -152598.63, -136125.86, -178249.05, 0.000, 0.000, 0.000, 19:16:24.579
78, -155849.30, -57009.93, -167013.09, -139930.86, -146881.59, -152491.33, -136072.30, -178202.25, 0.000, 0.000, 0.000, 19:16:24.579
79, -155787.66, -57321.43, -166953.05, -139816.28, -146822.38, -152378.91, -136016.94, -178153.95, 0.000, 0.000, 0.000, 19:16:24.579
80, -155861.34, -55445.64, -167023.67, -139955.16, -146891.33, -152515.42, -136080.95, -178211.22, 0.000, 0.000, 0.000, 19:16:24.580
81, -155902.78, -55743.57, -167063.69, -140031.81, -146930.97, -152590.81, -136117.78, -178244.89, 0.000, 0.000, 0.000, 19:16:24.580
82, -155861.86, -56720.95, -167024.08, -139957.16, -146892.55, -152517.45, -136081.58, -178213.67, 0.000, 0.000, 0.000, 19:16:24.580
83, -155783.81, -57574.71, -166948.39, -139810.52, -146818.08, -152373.53, -136012.14, -178153.05, 0.000, 0.000, 0.000, 19:16:24.580
84, -155846.30, -55632.66, -167008.08, -139926.25, -146876.19, -152487.48, -136066.28, -178201.67, 0.000, 0.000, 0.000, 19:16:24.581
85, -155893.16, -55596.03, -167053.11, -140018.78, -146920.41, -152578.45, -136106.97, -178238.09, 0.002, 0.040, 0.990, 19:16:24.581
86, -155869.42, -56410.73, -167030.00, -139975.88, -146898.14, -152536.38, -136085.91, -178220.33, 0.000, 0.000, 0.000, 19:16:24.581
87, -155784.48, -57665.24, -166947.86, -139814.02, -146817.58, -152377.58, -136010.97, -178155.25, 0.000, 0.000, 0.000, 19:16:24.581
88, -155824.16, -55948.80, -166985.39, -139889.17, -146853.80, -152451.55, -136044.58, -178185.44, 0.000, 0.000, 0.000, 19:16:24.582
89, -155885.84, -55492.83, -167044.84, -140006.77, -146912.17, -152567.17, -136098.67, -178233.98, 0.000, 0.000, 0.000, 19:16:24.582
90, -155876.80, -56233.75, -167036.08, -139991.91, -146904.02, -152552.70, -136090.69, -178227.73, 0.000, 0.000, 0.000, 19:16:24.583
91, -155788.45, -57618.77, -166950.56, -139826.00, -146820.20, -152389.81, -136012.53, -178159.53, 0.000, 0.000, 0.000, 19:16:24.584
92, -155801.31, -56320.67, -166962.19, -139851.55, -146831.06, -152414.97, -136022.41, -178168.66, 0.000, 0.000, 0.000, 19:16:24.585
93, -155873.73, -55426.00, -167031.73, -139988.19, -146899.39, -152549.33, -136085.81, -178225.47, 0.000, 0.000, 0.000, 19:16:24.585
94, -155878.95, -56085.20, -167036.66, -139999.31, -146904.59, -152560.42, -136090.41, -178230.44, 0.000, 0.000, 0.000, 19:16:24.585
95, -155797.55, -57479.43, -166957.91, -139846.39, -146827.52, -152410.44, -136018.47, -178167.88, 0.002, 0.038, 0.994, 19:16:24.586
96, -155787.27, -56720.93, -166947.36, -139823.92, -146816.72, -152388.52, -136008.58, -178160.11, 0.000, 0.000, 0.000, 19:16:24.595
97, -155867.63, -55382.19, -167024.56, -139973.70, -146892.47, -152535.70, -136078.98, -178223.39, 0.000, 0.000, 0.000, 19:16:24.595
98, -155883.30, -55977.57, -167039.59, -140006.14, -146907.58, -152567.58, -136092.72, -178236.14, 0.000, 0.000, 0.000, 19:16:24.596
99, -155813.67, -57232.33, -166972.36, -139876.34, -146841.81, -152440.33, -136031.34, -178182.78, 0.000, 0.000, 0.000, 19:16:24.596
100, -155772.30, -57110.23, -166931.98, -139798.78, -146801.73, -152364.23, -135993.84, -178150.33, 0.000, 0.000, 0.000, 19:16:24.596
101, -155849.09, -55444.35, -167005.48, -139945.03, -146873.63, -152507.94, -136060.47, -178209.56, 0.000, 0.000, 0.000, 19:16:24.597
102, -155876.52, -55933.59, -167031.83, -139999.36, -146899.70, -152561.36, -136084.41, -178231.34, 0.000, 0.000, 0.000, 19:16:24.597
103, -155824.95, -57034.65, -166981.94, -139901.83, -146851.05, -152465.64, -136039.11, -178192.44, 0.000, 0.000, 0.000, 19:16:24.598
104, -155762.50, -57491.19, -166921.25, -139782.78, -146791.41, -152348.84, -135983.61, -178144.20, 0.000, 0.000, 0.000, 19:16:24.598
105, -155836.16, -55559.15, -166991.75, -139919.64, -146860.25, -152483.50, -136047.64, -178201.72, 0.000, 0.040, 0.996, 19:16:24.598
106, -155875.61, -55817.07, -167029.70, -139996.38, -146897.81, -152558.97, -136082.17, -178232.94, 0.000, 0.000, 0.000, 19:16:24.599
107, -155840.63, -56747.93, -166995.80, -139930.55, -146864.92, -152494.23, -136051.36, -178206.78, 0.000, 0.000, 0.000, 19:16:24.600
108, -155759.28, -57646.38, -166917.03, -139778.33, -146787.44, -152344.98, -135979.02, -178143.70, 0.000, 0.000, 0.000, 19:16:24.600
109, -155815.23, -55745.41, -166970.30, -139884.70, -146839.27, -152449.55, -136027.13, -178186.67, 0.000, 0.000, 0.000, 19:16:24.600
110, -155867.77, -55688.39, -167020.92, -139984.95, -146889.09, -152548.22, -136073.27, -178228.09, 0.000, 0.000, 0.000, 19:16:24.601
111, -155844.88, -56512.90, -166998.69, -139945.70, -146867.55, -152509.70, -136052.66, -178210.56, 0.000, 0.000, 0.000, 19:16:24.601
112, -155754.33, -57747.83, -166910.81, -139777.52, -146781.31, -152344.50, -135972.16, -178140.02, 0.000, 0.000, 0.000, 19:16:24.601
113, -155789.58, -56070.31, -166944.09, -139844.00, -146813.45, -152409.91, -136002.00, -178166.80, 0.000, 0.000, 0.000, 19:16:24.602
114, -155856.19, -55527.70, -167008.30, -139968.27, -146876.48, -152532.02, -136060.63, -178219.64, 0.000, 0.040, 0.998, 19:16:24.602
115, -155852.16, -56254.11, -167004.34, -139960.89, -146873.11, -152524.97, -136057.23, -178217.67, 0.000, 0.000, 0.000, 19:16:24.603
116, -155764.55, -57616.07, -166919.61, -139796.41, -146790.03, -152363.59, -135979.78, -178150.23, 0.000, 0.000, 0.000, 19:16:24.604
117, -155770.52, -56421.84, -166924.59, -139810.22, -146794.41, -152377.11, -135983.47, -178153.77, 0.000, 0.000, 0.000, 19:16:24.604
118, -155843.84, -55430.56, -166995.08, -139949.16, -146863.52, -152513.75, -136047.59, -178211.19, 0.000, 0.000, 0.000, 19:16:24.605
119, -155851.47, -56073.37, -167002.33, -139964.89, -146871.00, -152529.42, -136054.33, -178217.89, 0.000, 0.000, 0.000, 19:16:24.605
120, -155769.06, -57409.58, -166922.52, -139812.92, -146792.75, -152380.13, -135981.13, -178153.86, 0.000, 0.000, 0.000, 19:16:25.013
121, -155751.11, -56792.70, -166904.63, -139777.80, -146774.72, -152345.75, -135964.36, -178139.84, 0.000, 0.000, 0.000, 19:16:25.013
122, -155832.27, -55367.37, -166982.66, -139928.91, -146851.27, -152494.33, -136035.64, -178203.80, 0.000, 0.000, 0.000, 19:16:25.013
123, -155852.27, -55967.65, -167001.92, -139967.64, -146870.53, -152532.45, -136053.20, -178220.27, 0.000, 0.000, 0.000, 19:16:25.014
124, -155786.72, -57168.86, -166938.42, -139844.44, -146808.58, -152411.69, -135995.39, -178170.20, -0.002, 0.040, 1.004, 19:16:25.014
125, -155741.56, -57185.35, -166894.48, -139758.61, -146764.95, -152327.53, -135954.91, -178135.16, 0.000, 0.000, 0.000, 19:16:25.014
126, -155817.48, -55416.16, -166967.22, -139903.28, -146836.05, -152469.77, -136020.83, -178193.84, 0.000, 0.000, 0.000, 19:16:25.015
127, -155849.95, -55820.04, -166998.45, -139964.70, -146867.11, -152530.20, -136049.50, -178220.08, 0.000, 0.000, 0.000, 19:16:25.015
128, -155801.16, -56913.02, -166951.23, -139872.98, -146821.11, -152440.09, -136006.52, -178183.16, 0.000, 0.000, 0.000, 19:16:25.015
129, -155732.78, -57507.48, -166884.67, -139744.53, -146755.63, -152314.02, -135945.56, -178129.88, 0.000, 0.000, 0.000, 19:16:25.015
130, -155801.67, -55545.89, -166950.47, -139874.63, -146819.89, -152441.95, -136005.16, -178183.09, 0.000, 0.000, 0.000, 19:16:25.016
131, -155847.16, -55710.65, -166994.39, -139959.44, -146863.20, -152525.33, -136045.39, -178219.77, 0.000, 0.000, 0.000, 19:16:25.016
132, -155819.70, -56600.36, -166968.06, -139904.14, -146837.86, -152471.30, -136021.84, -178200.44, 0.000, 0.000, 0.000, 19:16:25.016
133, -155736.94, -57580.42, -166887.78, -139748.44, -146759.00, -152318.61, -135948.38, -178136.47, 0.000, 0.000, 0.000, 19:16:25.016
134, -155785.44, -55777.01, -166933.70, -139843.81, -146803.41, -152412.34, -135989.34, -178172.64, 0.000, 0.042, 0.996, 19:16:25.016
135, -155841.94, -55602.11, -166988.25, -139950.09, -146857.11, -152516.91, -136039.02, -178217.53, 0.000, 0.000, 0.000, 19:16:25.017
136, -155825.63, -56381.25, -166972.36, -139920.16, -146842.00, -152487.44, -136024.69, -178205.78, 0.000, 0.000, 0.000, 19:16:25.017
137, -155736.63, -57657.30, -166886.14, -139753.06, -146757.41, -152323.31, -135945.92, -178136.95, 0.000, 0.000, 0.000, 19:16:25.017
138, -155770.13, -56110.12, -166917.97, -139813.47, -146788.19, -152382.83, -135974.73, -178163.33, 0.000, 0.000, 0.000, 19:16:25.017
139, -155836.41, -55490.44, -166981.78, -139939.22, -146850.80, -152506.50, -136032.83, -178215.53, 0.000, 0.000, 0.000, 19:16:25.018
140, -155833.30, -56196.95, -166978.56, -139935.03, -146848.16, -152502.64, -136030.00, -178213.83, 0.000, 0.000, 0.000, 19:16:25.018
141, -155745.81, -57662.71, -166893.92, -139771.63, -146765.22, -152342.25, -135952.61, -178146.17, 0.000, 0.000, 0.000, 19:16:25.018
142, -155750.42, -56718.73, -166897.78, -139779.05, -146768.48, -152349.63, -135955.70, -178149.64, 0.000, 0.000, 0.000, 19:16:25.018
143, -155826.34, -55790.04, -166970.81, -139921.67, -146840.05, -152490.02, -136022.20, -178209.25, 0.000, 0.000, 0.000, 19:16:25.019
144, -155835.78, -56545.69, -166979.86, -139941.55, -146849.30, -152509.50, -136030.41, -178217.31, 0.004, 0.048, 0.994, 19:16:25.020
145, -155757.45, -57895.26, -166904.03, -139795.83, -146775.16, -152366.41, -135961.19, -178156.97, 0.000, 0.000, 0.000, 19:16:25.020
146, -155733.89, -57414.01, -166880.78, -139750.05, -146751.92, -152321.64, -135939.59, -178138.66, 0.000, 0.000, 0.000, 19:16:25.021
147, -155812.70, -55898.80, -166956.34, -139898.84, -146825.83, -152467.91, -136008.23, -178199.97, 0.000, 0.000, 0.000, 19:16:25.021
148, -155832.64, -56316.89, -166975.50, -139939.64, -146844.94, -152507.98, -136025.61, -178215.86, 0.000, 0.000, 0.000, 19:16:25.022
149, -155769.06, -57271.74, -166913.88, -139821.28, -146784.73, -152391.78, -135969.33, -178166.95, 0.000, 0.000, 0.000, 19:16:25.022
150, -155717.69, -57295.88, -166863.81, -139724.84, -146735.17, -152297.22, -135923.13, -178126.80, 0.000, 0.000, 0.000, 19:16:25.023
151, -155797.89, -55351.59, -166940.81, -139872.92, -146810.55, -152442.89, -135993.39, -178189.91, 0.000, 0.000, 0.000, 19:16:25.023
152, -155830.13, -55563.13, -166971.69, -139936.09, -146841.14, -152505.09, -136021.42, -178215.44, 0.000, 0.000, 0.000, 19:16:25.023
153, -155783.66, -56543.59, -166926.59, -139849.72, -146797.31, -152420.36, -135980.44, -178180.08, 0.000, 0.000, 0.000, 19:16:25.023
154, -155711.28, -57285.78, -166856.39, -139714.14, -146728.22, -152287.19, -135915.95, -178123.86, 0.002, 0.044, 0.994, 19:16:25.024
155, -155778.41, -55434.61, -166920.59, -139840.13, -146790.78, -152411.02, -135974.06, -178175.94, 0.000, 0.000, 0.000, 19:16:25.024
156, -155823.42, -55588.27, -166963.88, -139926.63, -146833.45, -152496.14, -136013.47, -178211.55, 0.000, 0.000, 0.000, 19:16:25.024
157, -155794.61, -56508.76, -166935.92, -139872.83, -146806.52, -152443.42, -135988.03, -178190.09, 0.000, 0.000, 0.000, 19:16:25.024
158, -155711.45, -57659.54, -166855.56, -139715.16, -146727.55, -152288.73, -135914.58, -178126.16, 0.000, 0.000, 0.000, 19:16:25.024
159, -155760.94, -55900.13, -166902.55, -139807.78, -146773.16, -152379.86, -135957.03, -178164.11, 0.000, 0.000, 0.000, 19:16:25.025
160, -155817.56, -55619.92, -166957.11, -139916.38, -146826.81, -152486.59, -136006.73, -178208.64, 0.000, 0.000, 0.000, 19:16:25.025
161, -155802.36, -56379.03, -166942.27, -139890.25, -146812.59, -152461.00, -135993.06, -178197.42, 0.000, 0.000, 0.000, 19:16:25.025
162, -155713.83, -57713.99, -166856.45, -139723.50, -146728.56, -152297.22, -135914.73, -178129.19, 0.000, 0.000, 0.000, 19:16:25.026
163, -155739.00, -56236.16, -166880.16, -139770.86, -146751.30, -152343.88, -135935.80, -178148.41, 0.000, 0.000, 0.000, 19:16:25.026
164, -155807.72, -55503.38, -166946.31, -139900.75, -146816.22, -152471.61, -135996.02, -178202.34, 0.004, 0.036, 0.994, 19:16:25.027
165, -155810.16, -56225.50, -166948.58, -139904.45, -146818.80, -152475.42, -135998.31, -178205.47, 0.000, 0.000, 0.000, 19:16:25.027
166, -155724.28, -57572.13, -166865.58, -139744.05, -146737.47, -152317.98, -135922.45, -178139.23, 0.000, 0.000, 0.000, 19:16:25.027
167, -155720.00, -56606.44, -166860.75, -139737.45, -146732.20, -152311.58, -135917.36, -178135.06, 0.000, 0.000, 0.000, 19:16:25.028
168, -155794.02, -55458.83, -166931.78, -139879.36, -146801.83, -152450.97, -135981.75, -178192.50, 0.000, 0.000, 0.000, 19:16:25.028
169, -155809.94, -56087.48, -166947.13, -139907.81, -146817.36, -152479.06, -135996.22, -178206.52, 0.000, 0.000, 0.000, 19:16:25.028
170, -155734.56, -57378.85, -166874.03, -139767.28, -146745.98, -152340.97, -135929.52, -178148.45, 0.000, 0.000, 0.000, 19:16:25.028
171, -155702.36, -57004.52, -166842.28, -139707.88, -146714.31, -152282.70, -135899.86, -178122.59, 0.000, 0.000, 0.000, 19:16:25.028
172, -155781.06, -55416.59, -166917.91, -139856.78, -146788.28, -152429.19, -135968.50, -178183.72, 0.000, 0.000, 0.000, 19:16:25.028
173, -155808.97, -55969.77, -166944.80, -139907.56, -146815.13, -152479.33, -135993.53, -178207.13, 0.006, 0.038, 0.992, 19:16:25.029
174, -155748.88, -57116.82, -166886.75, -139795.58, -146758.38, -152369.47, -135940.48, -178161.25, 0.000, 0.000, 0.000, 19:16:25.029
175, -155690.05, -57318.83, -166829.41, -139687.42, -146701.67, -152263.36, -135887.47, -178114.77, 0.000, 0.000, 0.000, 19:16:25.029
176, -155765.03, -55512.10, -166901.30, -139829.02, -146771.88, -152402.56, -135952.67, -178172.95, 0.000, 0.000, 0.000, 19:16:25.029
177, -155797.67, -55903.45, -166932.45, -139894.88, -146802.81, -152467.19, -135980.91, -178198.36, 0.000, 0.000, 0.000, 19:16:25.029
178, -155756.25, -56862.55, -166892.36, -139816.66, -146763.92, -152390.45, -135944.44, -178167.22, 0.000, 0.000, 0.000, 19:16:25.030
179, -155682.88, -57611.82, -166821.13, -139677.00, -146693.89, -152253.47, -135879.30, -178110.67, 0.000, 0.000, 0.000, 19:16:25.030
180, -155748.09, -55705.62, -166883.66, -139798.25, -146754.64, -152372.78, -135935.84, -178161.44, 0.000, 0.000, 0.000, 19:16:25.030
181, -155795.94, -55785.04, -166929.80, -139889.89, -146800.16, -152462.89, -135977.92, -178199.39, 0.000, 0.000, 0.000, 19:16:25.031
182, -155769.23, -56625.82, -166903.84, -139841.38, -146775.05, -152415.25, -135954.34, -178179.41, 0.000, 0.000, 0.000, 19:16:25.031
183, -155683.84, -57755.12, -166821.09, -139679.89, -146693.88, -152256.88, -135878.73, -178113.53, -0.008, 0.034, 0.998, 19:16:25.031
184, -155729.38, -55990.76, -166864.44, -139764.63, -146735.83, -152340.36, -135917.80, -178148.67, 0.000, 0.000, 0.000, 19:16:25.032
185, -155789.95, -55652.31, -166922.69, -139879.16, -146793.16, -152452.92, -135970.91, -178196.50, 0.000, 0.000, 0.000, 19:16:25.032
186, -155778.11, -56397.67, -166911.13, -139859.20, -146782.22, -152433.28, -135960.38, -178188.06, 0.000, 0.000, 0.000, 19:16:25.032
187, -155690.53, -57684.02, -166826.34, -139693.45, -146699.25, -152270.67, -135883.05, -178120.75, 0.000, 0.000, 0.000, 19:16:25.033
188, -155713.16, -56340.39, -166847.61, -139733.33, -146719.58, -152309.94, -135902.11, -178138.48, 0.000, 0.000, 0.000, 19:16:25.033
189, -155784.23, -55549.65, -166916.09, -139867.27, -146786.67, -152441.66, -135964.47, -178194.45, 0.000, 0.000, 0.000, 19:16:25.033
190, -155787.55, -56207.24, -166919.27, -139874.39, -146790.14, -152448.80, -135967.47, -178198.06, 0.000, 0.000, 0.000, 19:16:25.034
191, -155700.34, -57617.59, -166834.67, -139714.11, -146707.30, -152291.38, -135890.05, -178130.05, 0.000, 0.000, 0.000, 19:16:25.034
192, -155692.80, -56787.11, -166826.84, -139699.09, -146699.20, -152276.64, -135882.33, -178123.97, 0.000, 0.000, 0.000, 19:16:25.034
193, -155768.39, -55497.32, -166899.39, -139843.39, -146770.27, -152418.48, -135948.20, -178182.64, 0.000, 0.036, 1.000, 19:16:25.034
194, -155782.13, -56118.66, -166912.50, -139871.78, -146783.55, -152446.58, -135960.16, -178193.94, 0.000, 0.000, 0.000, 19:16:25.034
195, -155710.89, -57426.21, -166843.45, -139737.89, -146716.08, -152315.20, -135897.19, -178139.27, 0.000, 0.000, 0.000, 19:16:25.035
196, -155674.02, -57182.96, -166807.36, -139668.92, -146680.17, -152247.58, -135863.59, -178110.16, 0.000, 0.000, 0.000, 19:16:25.035
197, -155753.80, -55523.68, -166883.91, -139818.63, -146755.16, -152394.70, -135933.30, -178172.44, 0.000, 0.000, 0.000, 19:16:25.035
198, -155782.52, -56022.50, -166911.53, -139872.34, -146782.72, -152447.59, -135958.81, -178196.06, 0.000, 0.000, 0.000, 19:16:25.035
199, -155728.27, -57177.19, -166859.14, -139769.31, -146731.64, -152346.67, -135911.23, -178155.33, 0.000, 0.000, 0.000, 19:16:25.036
200, -155667.75, -57549.73, -166800.27, -139655.61, -146673.50, -152235.05, -135857.16, -178108.27, 0.000, 0.000, 0.000, 19:16:25.036
201, -155740.05, -55675.55, -166869.56, -139792.88, -146741.05, -152369.83, -135919.77, -178164.03, 0.000, 0.000, 0.000, 19:16:25.036
202, -155779.61, -55970.09, -166907.63, -139867.59, -146778.67, -152443.39, -135954.45, -178195.66, 0.000, 0.000, 0.000, 19:16:25.036
203, -155743.55, -56935.86, -166872.80, -139797.81, -146744.94, -152375.08, -135923.02, -178169.22, 0.002, 0.032, 1.000, 19:16:25.036
204, -155663.17, -57774.79, -166794.80, -139648.59, -146668.14, -152228.61, -135851.34, -178106.42, 0.000, 0.000, 0.000, 19:16:25.037
205, -155719.72, -55841.63, -166848.59, -139758.38, -146720.44, -152336.47, -135899.63, -178149.16, 0.000, 0.000, 0.000, 19:16:25.037
206, -155770.11, -55811.45, -166897.03, -139854.55, -146768.19, -152430.98, -135943.86, -178189.05, 0.000, 0.000, 0.000, 19:16:25.037
207, -155746.95, -56676.63, -166874.52, -139812.48, -146746.50, -152389.70, -135923.44, -178171.84, 0.000, 0.000, 0.000, 19:16:25.037
208, -155658.30, -57905.88, -166788.73, -139646.91, -146662.27, -152227.16, -135844.89, -178103.03, 0.000, 0.000, 0.000, 19:16:25.037
209, -155698.11, -56174.22, -166826.53, -139721.80, -146698.77, -152300.95, -135878.73, -178133.47, 0.000, 0.000, 0.000, 19:16:25.038
210, -155761.41, -55765.52, -166887.53, -139840.98, -146758.69, -152418.13, -135934.34, -178183.61, 0.000, 0.000, 0.000, 19:16:25.038
211, -155755.08, -56463.05, -166881.38, -139829.02, -146753.08, -152406.50, -135928.98, -178179.97, 0.000, 0.000, 0.000, 19:16:25.039
212, -155667.52, -57776.38, -166796.52, -139663.73, -146670.05, -152244.36, -135851.59, -178112.53, 0.000, 0.000, 0.000, 19:16:25.039
213, -155682.63, -56510.89, -166810.48, -139691.30, -146683.25, -152271.52, -135863.91, -178124.06, 0.002, 0.036, 0.998, 19:16:25.039
214, -155753.34, -55622.07, -166878.36, -139826.27, -146749.81, -152404.22, -135925.52, -178179.19, 0.000, 0.000, 0.000, 19:16:25.039
215, -155758.73, -56267.41, -166883.53, -139837.69, -146755.30, -152415.56, -135930.16, -178184.22, 0.000, 0.000, 0.000, 19:16:25.040
216, -155678.17, -57620.49, -166805.61, -139685.80, -146679.11, -152266.38, -135859.17, -178122.50, 0.000, 0.000, 0.000, 19:16:25.040
217, -155663.41, -56829.44, -166790.64, -139658.48, -146663.98, -152239.72, -135845.00, -178110.45, 0.000, 0.000, 0.000, 19:16:25.040
218, -155739.48, -55492.25, -166863.67, -139804.02, -146735.38, -152382.77, -135911.09, -178169.30, 0.000, 0.000, 0.000, 19:16:25.040
219, -155756.47, -56110.21, -166880.06, -139837.83, -146751.80, -152416.09, -135926.20, -178183.39, 0.000, 0.000, 0.000, 19:16:25.040
220, -155686.63, -57341.12, -166812.42, -139708.08, -146685.80, -152288.63, -135864.56, -178129.73, 0.000, 0.000, 0.000, 19:16:25.041
221, -155646.97, -57166.15, -166773.64, -139631.72, -146647.33, -152213.86, -135828.81, -178099.09, 0.000, 0.000, 0.000, 19:16:25.041
222, -155725.84, -55472.25, -166849.33, -139780.00, -146721.25, -152359.63, -135897.47, -178160.55, -0.002, 0.042, 0.996, 19:16:25.041
223, -155756.06, -55943.00, -166878.47, -139837.31, -146750.22, -152415.98, -135924.22, -178185.16, 0.000, 0.000, 0.000, 19:16:25.041
224, -155704.23, -57023.12, -166828.41, -139739.69, -146701.47, -152320.25, -135878.73, -178145.94, 0.000, 0.000, 0.000, 19:16:25.041
225, -155639.45, -57423.21, -166765.44, -139617.97, -146639.36, -152200.88, -135820.86, -178095.44, 0.000, 0.000, 0.000, 19:16:25.042
226, -155709.48, -55517.86, -166832.44, -139751.17, -146704.70, -152331.84, -135881.34, -178149.41, 0.000, 0.000, 0.000, 19:16:25.042
227, -155751.52, -55803.54, -166872.80, -139830.45, -146744.56, -152409.75, -135918.31, -178182.98, 0.000, 0.000, 0.000, 19:16:25.042
228, -155715.81, -56753.22, -166838.11, -139764.05, -146710.94, -152344.61, -135886.80, -178156.08, 0.000, 0.000, 0.000, 19:16:25.043
229, -155633.02, -57628.81, -166757.91, -139610.31, -146632.06, -152193.72, -135813.16, -178091.52, 0.000, 0.000, 0.000, 19:16:25.043
230, -155689.03, -55703.25, -166811.28, -139716.44, -146683.94, -152298.13, -135861.30, -178134.50, 0.000, 0.000, 0.000, 19:16:25.043
231, -155741.27, -55660.67, -166861.56, -139816.45, -146733.39, -152396.41, -135906.98, -178175.63, 0.000, 0.000, 0.000, 19:16:25.043
232, -155722.78, -56464.10, -166843.66, -139781.72, -146716.17, -152362.38, -135890.80, -178162.28, 0.002, 0.044, 1.000, 19:16:25.044
233, -155633.09, -57643.23, -166756.56, -139614.20, -146630.91, -152197.89, -135811.09, -178092.75, 0.000, 0.000, 0.000, 19:16:25.044
234, -155668.00, -56035.84, -166789.56, -139680.20, -146662.83, -152262.83, -135840.59, -178119.39, 0.000, 0.000, 0.000, 19:16:25.044
235, -155732.11, -55553.52, -166851.25, -139802.11, -146723.33, -152382.63, -135896.77, -178169.69, 0.000, 0.000, 0.000, 19:16:25.044
236, -155728.13, -56307.93, -166847.42, -139794.88, -146719.89, -152375.59, -135893.44, -178167.72, 0.000, 0.000, 0.000, 19:16:25.044
237, -155641.63, -57638.04, -166763.72, -139631.31, -146637.88, -152215.33, -135817.11, -178101.28, 0.000, 0.000, 0.000, 19:16:25.045
238, -155651.52, -56366.92, -166772.64, -139648.73, -146646.08, -152232.58, -135824.70, -178108.75, 0.000, 0.000, 0.000, 19:16:25.045
239, -155726.00, -55421.82, -166844.25, -139788.97, -146716.31, -152370.25, -135889.91, -178167.17, 0.000, 0.000, 0.000, 19:16:25.045
240, -155733.30, -56130.57, -166851.23, -139804.69, -146723.64, -152385.78, -135896.39, -178173.73, 0.000, 0.000, 0.000, 19:16:25.495
241, -155654.23, -57473.91, -166774.66, -139656.02, -146648.72, -152239.89, -135826.56, -178113.02, 0.000, 0.000, 0.000, 19:16:25.495
242, -155636.72, -56799.00, -166757.13, -139621.00, -146631.08, -152205.73, -135810.25, -178099.41, 0.004, 0.050, 0.996, 19:16:25.496
243, -155713.36, -55392.88, -166830.75, -139767.70, -146703.05, -152349.81, -135876.89, -178158.80, 0.000, 0.000, 0.000, 19:16:25.496
244, -155733.94, -55996.19, -166850.56, -139807.00, -146722.86, -152388.58, -135894.95, -178175.83, 0.000, 0.000, 0.000, 19:16:25.496
245, -155666.69, -57232.96, -166785.45, -139682.33, -146659.33, -152266.20, -135835.61, -178124.11, 0.000, 0.000, 0.000, 19:16:25.496
246, -155619.67, -57141.38, -166739.58, -139594.42, -146613.89, -152179.88, -135793.34, -178087.23, 0.000, 0.000, 0.000, 19:16:25.497
247, -155697.98, -55426.67, -166814.70, -139741.42, -146687.31, -152324.47, -135861.47, -178148.25, 0.000, 0.000, 0.000, 19:16:25.497
248, -155730.45, -55924.75, -166845.97, -139802.95, -146718.39, -152385.16, -135890.11, -178174.56, 0.000, 0.000, 0.000, 19:16:25.497
249, -155679.89, -56967.69, -166797.03, -139709.55, -146670.73, -152293.45, -135845.45, -178135.94, 0.000, 0.000, 0.000, 19:16:25.497
250, -155612.48, -57460.50, -166731.58, -139581.86, -146606.22, -152168.14, -135785.44, -178083.77, 0.000, 0.000, 0.000, 19:16:25.497
251, -155682.16, -55530.88, -166798.19, -139712.72, -146671.19, -152296.75, -135845.78, -178137.67, 0.000, 0.000, 0.000, 19:16:25.498
252, -155724.53, -55771.11, -166839.06, -139794.64, -146711.53, -152377.36, -135882.98, -178171.38, 0.002, 0.048, 1.000, 19:16:25.498
253, -155691.41, -56688.16, -166806.84, -139733.64, -146680.28, -152317.64, -135853.61, -178146.33, 0.000, 0.000, 0.000, 19:16:25.498
254, -155609.13, -57645.88, -166727.05, -139578.34, -146601.98, -152165.13, -135780.63, -178082.67, 0.000, 0.000, 0.000, 19:16:25.498
255, -155661.66, -55773.88, -166777.11, -139677.67, -146650.53, -152262.83, -135825.75, -178122.88, 0.000, 0.000, 0.000, 19:16:25.499
0, -155716.94, -55664.65, -166830.42, -139782.94, -146702.97, -152366.38, -135874.33, -178166.58, 0.000, 0.000, 0.000, 19:16:25.499
1, -155699.44, -56461.00, -166813.39, -139751.91, -146686.64, -152336.05, -135858.72, -178153.72, 0.000, 0.000, 0.000, 19:16:25.499
2, -155611.78, -57714.13, -166728.55, -139586.14, -146603.44, -152173.31, -135781.34, -178086.38, 0.000, 0.000, 0.000, 19:16:25.499
3, -155642.55, -56116.58, -166757.63, -139643.56, -146631.44, -152229.80, -135807.41, -178110.00, 0.000, 0.000, 0.000, 19:16:25.500
4, -155707.91, -55550.43, -166820.42, -139768.45, -146693.17, -152352.59, -135864.52, -178161.03, 0.000, 0.000, 0.000, 19:16:25.500
5, -155706.84, -56318.14, -166819.27, -139766.55, -146692.55, -152350.80, -135863.67, -178161.33, 0.000, 0.000, 0.000, 19:16:25.500
6, -155621.94, -57639.78, -166737.22, -139605.80, -146612.06, -152193.05, -135788.91, -178096.33, 0.002, 0.050, 0.996, 19:16:25.500
7, -155625.83, -56486.57, -166740.47, -139612.36, -146614.67, -152199.70, -135791.27, -178099.03, 0.000, 0.000, 0.000, 19:16:25.500
8, -155698.72, -55434.67, -166810.38, -139752.20, -146683.31, -152337.02, -135854.72, -178155.59, 0.000, 0.000, 0.000, 19:16:25.501
9, -155708.55, -56101.56, -166819.80, -139772.47, -146692.95, -152357.06, -135863.27, -178164.05, 0.000, 0.000, 0.000, 19:16:25.501
10, -155632.20, -57414.90, -166745.94, -139628.77, -146620.67, -152216.00, -135795.98, -178105.58, 0.000, 0.000, 0.000, 19:16:25.501
11, -155606.16, -56869.32, -166720.22, -139580.42, -146595.03, -152168.59, -135771.95, -178084.86, 0.000, 0.000, 0.000, 19:16:25.501
12, -155684.00, -55403.65, -166794.95, -139728.38, -146668.05, -152314.11, -135839.69, -178145.25, 0.000, 0.000, 0.000, 19:16:25.501
13, -155706.16, -55996.48, -166816.19, -139771.31, -146689.22, -152356.45, -135859.16, -178163.38, 0.000, 0.000, 0.000, 19:16:25.502
14, -155641.45, -57172.09, -166753.44, -139652.00, -146627.95, -152239.33, -135801.73, -178113.38, 0.000, 0.000, 0.000, 19:16:25.502
15, -155592.36, -57241.34, -166705.70, -139557.78, -146580.72, -152147.00, -135757.92, -178075.66, 0.000, 0.000, 0.000, 19:16:25.503
16, -155670.39, -55445.04, -166780.53, -139703.52, -146653.91, -152290.28, -135825.91, -178136.52, 0.004, 0.054, 0.996, 19:16:25.503
17, -155705.16, -55836.18, -166814.03, -139769.50, -146687.09, -152355.14, -135856.63, -178164.52, 0.000, 0.000, 0.000, 19:16:25.503
18, -155658.30, -56894.38, -166768.59, -139682.80, -146642.84, -152270.11, -135815.16, -178128.67, 0.000, 0.000, 0.000, 19:16:25.503
19, -155587.25, -57533.41, -166699.55, -139548.28, -146574.89, -152138.13, -135751.95, -178073.64, 0.000, 0.000, 0.000, 19:16:25.503
20, -155654.45, -55615.27, -166763.92, -139674.38, -146637.61, -152262.14, -135810.25, -178125.89, 0.000, 0.000, 0.000, 19:16:25.504
21, -155697.11, -55746.86, -166805.00, -139758.70, -146678.05, -152344.98, -135847.39, -178159.17, 0.000, 0.000, 0.000, 19:16:25.504
22, -155669.84, -56600.16, -166778.58, -139706.72, -146652.52, -152293.97, -135823.52, -178139.28, 0.000, 0.000, 0.000, 19:16:25.504
23, -155586.53, -57642.80, -166697.97, -139548.80, -146573.44, -152139.09, -135749.84, -178075.22, 0.000, 0.000, 0.000, 19:16:25.504
24, -155631.22, -55856.27, -166740.25, -139636.44, -146614.39, -152225.33, -135787.61, -178108.58, 0.000, 0.000, 0.000, 19:16:25.504
25, -155687.81, -55651.06, -166794.61, -139745.20, -146667.94, -152332.19, -135837.17, -178152.92, 0.000, 0.050, 0.994, 19:16:25.505
26, -155673.88, -56433.82, -166781.02, -139720.39, -146655.06, -152307.94, -135824.89, -178142.89, 0.000, 0.000, 0.000, 19:16:25.505
27, -155585.73, -57701.00, -166695.73, -139553.98, -146571.33, -152144.70, -135746.86, -178074.98, 0.000, 0.000, 0.000, 19:16:25.505
28, -155613.72, -56189.85, -166722.19, -139603.89, -146596.81, -152193.89, -135770.69, -178097.05, 0.000, 0.000, 0.000, 19:16:25.505
29, -155682.75, -55507.07, -166788.58, -139734.20, -146662.11, -152322.08, -135831.19, -178151.31, 0.000, 0.000, 0.000, 19:16:25.505
30, -155683.22, -56192.46, -166788.91, -139736.22, -146662.75, -152324.14, -135831.50, -178152.52, 0.000, 0.000, 0.000, 19:16:25.505
31, -155593.95, -57545.37, -166702.39, -139572.45, -146577.84, -152163.23, -135752.11, -178082.78, 0.000, 0.000, 0.000, 19:16:25.506
32, -155589.13, -56530.58, -166697.05, -139565.11, -146571.97, -152156.08, -135746.52, -178078.06, 0.000, 0.000, 0.000, 19:16:25.506
33, -155665.23, -55427.03, -166770.25, -139709.22, -146643.67, -152297.72, -135813.13, -178137.61, 0.000, 0.000, 0.000, 19:16:25.506
34, -155676.72, -56084.57, -166781.20, -139733.33, -146654.84, -152321.45, -135823.09, -178147.13, 0.000, 0.000, 0.000, 19:16:25.506
35, -155603.34, -57384.66, -166710.28, -139595.05, -146585.58, -152185.69, -135758.44, -178091.00, 0.002, 0.050, 0.992, 19:16:25.506
36, -155573.75, -56932.68, -166681.16, -139538.06, -146556.58, -152130.03, -135731.45, -178067.89, 0.000, 0.000, 0.000, 19:16:25.507
37, -155652.77, -55376.42, -166757.02, -139687.25, -146630.80, -152276.66, -135800.23, -178129.47, 0.000, 0.000, 0.000, 19:16:25.507
38, -155679.66, -55934.75, -166782.98, -139737.09, -146656.66, -152325.70, -135824.23, -178151.88, 0.000, 0.000, 0.000, 19:16:25.509
39, -155619.75, -57081.04, -166724.94, -139625.48, -146600.03, -152216.20, -135771.39, -178106.05, 0.000, 0.000, 0.000, 19:16:25.509
40, -155564.58, -57275.09, -166671.23, -139520.97, -146546.91, -152113.67, -135722.00, -178063.22, 0.000, 0.000, 0.000, 19:16:25.509
41, -155639.92, -55439.68, -166743.36, -139662.72, -146617.41, -152252.95, -135787.33, -178121.66, 0.000, 0.000, 0.000, 19:16:25.509
42, -155677.02, -55809.44, -166779.14, -139733.16, -146652.86, -152322.28, -135820.11, -178151.56, 0.000, 0.000, 0.000, 19:16:25.510
43, -155635.28, -56860.00, -166738.70, -139654.75, -146613.63, -152245.38, -135783.41, -178120.17, 0.000, 0.000, 0.000, 19:16:25.510
44, -155560.31, -57554.98, -166665.89, -139513.39, -146542.03, -152106.83, -135716.59, -178061.91, 0.000, 0.000, 0.000, 19:16:25.510
45, -155623.66, -55623.63, -166726.48, -139632.84, -146601.05, -152224.30, -135771.33, -178110.86, 0.010, 0.048, 0.990, 19:16:25.518
46, -155672.81, -55699.45, -166773.88, -139725.88, -146647.75, -152315.64, -135814.67, -178150.13, 0.000, 0.000, 0.000, 19:16:25.519
47, -155646.08, -56560.24, -166747.92, -139677.39, -146622.56, -152268.03, -135791.00, -178129.98, 0.000, 0.000, 0.000, 19:16:25.520
48, -155559.00, -57662.61, -166663.47, -139514.22, -146539.73, -152107.91, -135713.81, -178062.50, 0.000, 0.000, 0.000, 19:16:25.521
49, -155602.98, -55874.69, -166705.27, -139597.39, -146580.23, -152189.77, -135751.38, -178096.09, 0.000, 0.000, 0.000, 19:16:25.522
50, -155662.14, -55566.64, -166762.27, -139710.73, -146636.25, -152301.16, -135803.25, -178142.59, 0.000, 0.000, 0.000, 19:16:25.522
51, -155653.05, -56366.36, -166753.47, -139693.53, -146627.97, -152284.31, -135795.31, -178136.78, 0.000, 0.000, 0.000, 19:16:25.522
52, -155565.50, -57693.96, -166668.73, -139527.86, -146544.88, -152121.77, -135718.05, -178069.55, 0.000, 0.000, 0.000, 19:16:25.522
53, -155586.67, -56245.95, -166688.36, -139566.03, -146563.64, -152159.55, -135735.50, -178085.70, 0.000, 0.000, 0.000, 19:16:25.522
54, -155655.38, -55471.69, -166754.42, -139697.75, -146628.47, -152288.94, -135795.45, -178139.23, 0.000, 0.000, 0.000, 19:16:25.523
55, -155658.45, -56180.86, -166757.36, -139704.75, -146631.78, -152295.89, -135798.22, -178142.53, 0.006, 0.044, 0.992, 19:16:25.523
56, -155575.20, -57518.64, -166676.86, -139548.58, -146552.98, -152142.53, -135724.77, -178078.55, 0.000, 0.000, 0.000, 19:16:25.523
57, -155566.97, -56650.83, -166668.33, -139532.75, -146544.02, -152127.05, -135716.38, -178071.84, 0.000, 0.000, 0.000, 19:16:25.523
58, -155647.19, -55455.93, -166745.48, -139681.77, -146619.70, -152273.69, -135786.78, -178135.28, 0.000, 0.000, 0.000, 19:16:25.523
59, -155660.53, -56076.52, -166758.16, -139709.80, -146632.53, -152301.27, -135798.27, -178145.98, 0.000, 0.000, 0.000, 19:16:25.524
60, -155584.70, -57344.80, -166684.64, -139571.34, -146560.63, -152165.33, -135730.78, -178086.89, 0.000, 0.000, 0.000, 19:16:25.524
61, -155550.20, -57018.38, -166650.84, -139504.86, -146527.06, -152100.20, -135699.67, -178060.25, 0.000, 0.000, 0.000, 19:16:25.524
62, -155629.78, -55414.24, -166727.27, -139654.34, -146601.72, -152247.19, -135769.13, -178122.36, 0.000, 0.000, 0.000, 19:16:25.531
63, -155654.66, -55949.43, -166751.20, -139704.36, -146625.52, -152296.31, -135790.89, -178142.02, 0.000, 0.000, 0.000, 19:16:25.531
64, -155598.83, -57066.57, -166697.05, -139599.84, -146572.77, -152193.63, -135741.56, -178099.41, 0.000, 0.000, 0.000, 19:16:25.531
65, -155538.44, -57387.03, -166638.27, -139486.13, -146514.83, -152082.14, -135687.47, -178052.36, 0.004, 0.046, 0.994, 19:16:25.531
66, -155612.55, -55521.33, -166709.25, -139625.17, -146584.23, -152218.84, -135751.86, -178110.03, 0.000, 0.000, 0.000, 19:16:25.532
67, -155650.59, -55811.68, -166745.86, -139698.52, -146620.33, -152291.06, -135785.25, -178140.30, 0.000, 0.000, 0.000, 19:16:25.532
68, -155611.59, -56745.64, -166708.09, -139626.00, -146583.58, -152219.89, -135750.83, -178110.86, 0.000, 0.000, 0.000, 19:16:25.532
69, -155535.84, -57565.62, -166634.70, -139481.42, -146511.45, -152078.09, -135683.72, -178052.67, 0.000, 0.000, 0.000, 19:16:25.532
70, -155597.39, -55717.20, -166693.56, -139596.08, -146568.81, -152190.94, -135737.06, -178100.45, 0.000, 0.000, 0.000, 19:16:25.532
71, -155645.89, -55724.17, -166740.25, -139690.50, -146614.75, -152283.72, -135779.47, -178138.55, 0.000, 0.000, 0.000, 19:16:25.532
72, -155623.80, -56561.80, -166718.80, -139649.58, -146594.09, -152243.56, -135760.05, -178122.31, 0.000, 0.000, 0.000, 19:16:25.533
73, -155535.56, -57672.48, -166633.36, -139484.41, -146510.30, -152081.38, -135681.83, -178053.94, 0.000, 0.000, 0.000, 19:16:25.533
74, -155576.27, -55965.44, -166672.08, -139560.08, -146547.69, -152155.94, -135716.64, -178085.34, 0.004, 0.044, 0.988, 19:16:25.533
75, -155637.58, -55604.25, -166731.02, -139677.30, -146605.63, -152271.20, -135770.13, -178133.34, 0.000, 0.000, 0.000, 19:16:25.533
76, -155626.20, -56351.05, -166719.69, -139660.31, -146594.97, -152254.63, -135759.63, -178124.55, 0.000, 0.000, 0.000, 19:16:25.533
77, -155538.20, -57700.60, -166634.59, -139494.84, -146511.48, -152092.22, -135681.95, -178056.97, 0.000, 0.000, 0.000, 19:16:25.534
78, -155553.09, -56378.72, -166648.31, -139521.91, -146524.38, -152118.88, -135693.88, -178068.11, 0.000, 0.000, 0.000, 19:16:25.534
79, -155626.97, -55510.04, -166719.33, -139660.11, -146594.16, -152254.88, -135758.70, -178126.31, 0.000, 0.000, 0.000, 19:16:25.534
80, -155633.98, -56185.18, -166726.03, -139673.36, -146601.16, -152267.92, -135765.08, -178133.05, 0.000, 0.000, 0.000, 19:16:25.534
81, -155550.39, -57543.69, -166645.17, -139518.53, -146521.88, -152115.95, -135690.97, -178068.31, 0.000, 0.000, 0.000, 19:16:25.534
82, -155537.25, -56746.34, -166631.94, -139492.72, -146508.38, -152090.83, -135678.42, -178057.98, 0.000, 0.000, 0.000, 19:16:25.534
83, -155615.09, -55441.53, -166706.64, -139640.06, -146581.58, -152235.63, -135746.31, -178118.63, 0.000, 0.000, 0.000, 19:16:25.535
84, -155634.91, -56076.43, -166725.77, -139676.77, -146600.77, -152271.70, -135764.02, -178135.39, 0.006, 0.048, 0.992, 19:16:25.535
85, -155566.14, -57366.64, -166659.31, -139548.13, -146535.81, -152145.50, -135703.34, -178082.64, 0.000, 0.000, 0.000, 19:16:25.535
86, -155523.97, -57183.00, -166618.14, -139469.09, -146494.89, -152068.09, -135665.16, -178049.61, 0.000, 0.000, 0.000, 19:16:25.536
87, -155603.92, -55506.15, -166694.86, -139618.47, -146569.88, -152214.88, -135734.97, -178112.17, 0.000, 0.000, 0.000, 19:16:25.536
88, -155633.27, -56007.90, -166723.13, -139675.06, -146597.95, -152270.61, -135760.84, -178135.91, 0.000, 0.000, 0.000, 19:16:25.536
89, -155579.36, -57093.21, -166670.94, -139575.63, -146547.00, -152172.95, -135713.17, -178094.58, 0.000, 0.000, 0.000, 19:16:25.536
90, -155515.19, -57473.84, -166608.52, -139454.39, -146485.45, -152053.97, -135656.00, -178044.69, 0.000, 0.000, 0.000, 19:16:25.536
91, -155589.06, -55565.74, -166679.39, -139591.31, -146554.58, -152188.66, -135720.38, -178102.42, 0.000, 0.000, 0.000, 19:16:25.537
92, -155628.95, -55842.41, -166717.83, -139668.73, -146592.55, -152264.81, -135755.34, -178134.05, 0.000, 0.000, 0.000, 19:16:25.537
93, -155593.22, -56809.21, -166683.02, -139602.53, -146558.86, -152199.75, -135723.67, -178107.13, 0.000, 0.000, 0.000, 19:16:25.537
94, -155512.97, -57679.34, -166605.25, -139451.09, -146482.42, -152051.25, -135652.47, -178045.09, 0.006, 0.042, 0.992, 19:16:25.537
95, -155571.36, -55750.32, -166660.95, -139559.30, -146536.69, -152157.81, -135702.95, -178090.36, 0.000, 0.000, 0.000, 19:16:25.537
96, -155624.22, -55699.14, -166711.94, -139660.25, -146586.78, -152257.00, -135749.34, -178132.16, 0.000, 0.000, 0.000, 19:16:25.537
97, -155603.36, -56515.73, -166691.64, -139623.45, -146567.30, -152220.89, -135730.77, -178116.64, 0.000, 0.000, 0.000, 19:16:25.549
98, -155514.88, -57706.57, -166605.89, -139457.14, -146483.09, -152057.70, -135652.44, -178048.20, 0.000, 0.000, 0.000, 19:16:25.551
99, -155548.44, -56043.11, -166637.53, -139521.39, -146513.63, -152120.89, -135680.61, -178073.48, 0.000, 0.000, 0.000, 19:16:25.551
100, -155614.31, -55574.97, -166700.91, -139645.09, -146575.89, -152242.53, -135738.34, -178125.53, 0.000, 0.000, 0.000, 19:16:25.551
101, -155611.14, -56300.38, -166697.88, -139638.92, -146573.34, -152236.63, -135735.81, -178124.42, 0.000, 0.000, 0.000, 19:16:25.552
102, -155524.44, -57634.84, -166614.13, -139475.59, -146491.25, -152076.33, -135659.33, -178057.88, 0.000, 0.000, 0.000, 19:16:25.552
103, -155532.81, -56387.46, -166621.55, -139491.11, -146497.95, -152091.75, -135665.47, -178063.84, 0.000, 0.000, 0.000, 19:16:25.552
104, -155606.06, -55432.35, -166691.95, -139630.22, -146567.05, -152228.36, -135729.56, -178121.17, 0.002, 0.044, 0.994, 19:16:25.972
105, -155615.23, -56171.95, -166700.78, -139647.86, -146576.19, -152245.73, -135737.83, -178129.45, 0.000, 0.000, 0.000, 19:16:25.972
106, -155533.89, -57526.57, -166621.97, -139497.14, -146499.14, -152097.89, -135665.72, -178066.53, 0.000, 0.000, 0.000, 19:16:25.973
107, -155514.42, -56805.97, -166602.55, -139460.02, -146479.61, -152061.64, -135647.48, -178051.05, 0.000, 0.000, 0.000, 19:16:25.973
108, -155592.20, -55424.32, -166677.28, -139607.67, -146552.66, -152206.81, -135715.19, -178111.36, 0.000, 0.000, 0.000, 19:16:25.973
109, -155610.88, -56032.13, -166695.22, -139645.27, -146570.47, -152243.81, -135731.45, -178126.50, 0.000, 0.000, 0.000, 19:16:25.973
110, -155547.59, -57251.76, -166634.03, -139524.66, -146510.78, -152125.61, -135675.89, -178078.67, 0.000, 0.000, 0.000, 19:16:25.974
111, -155501.50, -57147.53, -166588.94, -139437.47, -146466.14, -152040.06, -135634.45, -178042.72, 0.000, 0.000, 0.000, 19:16:25.974
112, -155579.27, -55426.82, -166663.47, -139584.09, -146539.13, -152184.13, -135702.11, -178103.28, 0.000, 0.000, 0.000, 19:16:25.974
113, -155612.81, -55902.83, -166695.89, -139646.78, -146571.22, -152245.81, -135731.86, -178130.70, 0.000, 0.000, 0.000, 19:16:25.974
114, -155564.53, -56988.45, -166649.13, -139555.70, -146525.72, -152156.52, -135689.44, -178094.25, 0.004, 0.044, 0.998, 19:16:25.975
115, -155494.13, -57478.87, -166580.75, -139424.91, -146458.27, -152028.16, -135626.38, -178039.03, 0.000, 0.000, 0.000, 19:16:25.975
116, -155562.23, -55557.92, -166645.91, -139554.05, -146521.73, -152155.19, -135685.20, -178091.45, 0.000, 0.000, 0.000, 19:16:25.975
117, -155605.59, -55791.81, -166687.66, -139637.16, -146562.89, -152236.77, -135723.28, -178126.00, 0.000, 0.000, 0.000, 19:16:25.976
118, -155574.86, -56711.56, -166657.95, -139578.92, -146534.23, -152179.77, -135696.45, -178103.48, 0.000, 0.000, 0.000, 19:16:25.976
119, -155490.73, -57604.04, -166576.30, -139421.69, -146454.08, -152025.50, -135621.63, -178038.05, 0.000, 0.000, 0.000, 19:16:25.976
120, -155546.39, -55768.18, -166629.39, -139523.94, -146505.67, -152126.09, -135669.73, -178081.45, 0.000, 0.000, 0.000, 19:16:25.976
121, -155601.44, -55648.69, -166682.47, -139629.11, -146557.83, -152229.39, -135718.06, -178124.89, 0.000, 0.000, 0.000, 19:16:25.976
122, -155585.33, -56462.58, -166666.77, -139599.61, -146542.88, -152200.56, -135703.84, -178113.38, 0.000, 0.000, 0.000, 19:16:25.977
123, -155494.94, -57764.53, -166579.36, -139431.05, -146457.05, -152035.13, -135623.72, -178043.31, 0.000, 0.000, 0.000, 19:16:25.977
124, -155521.67, -56253.06, -166604.41, -139484.20, -146481.06, -152087.44, -135645.73, -178062.89, 0.006, 0.040, 0.992, 19:16:25.977
125, -155586.17, -55859.11, -166666.38, -139608.41, -146541.89, -152209.47, -135702.06, -178113.17, 0.000, 0.000, 0.000, 19:16:25.977
126, -155583.16, -56718.91, -166663.47, -139604.72, -146539.34, -152205.89, -135699.38, -178111.64, 0.000, 0.000, 0.000, 19:16:25.977
127, -155497.92, -58129.64, -166581.02, -139443.66, -146458.66, -152047.92, -135624.22, -178046.25, 0.000, 0.000, 0.000, 19:16:25.978
128, -155499.50, -57004.23, -166581.83, -139447.66, -146459.00, -152051.89, -135624.25, -178046.75, 0.000, 0.000, 0.000, 19:16:25.978
129, -155575.22, -56021.27, -166654.58, -139590.28, -146530.34, -152192.11, -135690.39, -178105.98, 0.000, 0.000, 0.000, 19:16:25.978
130, -155587.61, -56613.01, -166666.53, -139613.33, -146542.48, -152214.72, -135701.59, -178116.95, 0.000, 0.000, 0.000, 19:16:25.978
131, -155512.41, -57729.37, -166593.69, -139470.80, -146471.27, -152074.98, -135635.34, -178059.59, 0.000, 0.000, 0.000, 19:16:25.978
132, -155487.69, -57002.00, -166569.23, -139423.45, -146446.75, -152028.67, -135612.50, -178040.20, 0.000, 0.000, 0.000, 19:16:25.979
133, -155567.33, -55398.48, -166645.64, -139573.25, -146521.53, -152175.86, -135681.95, -178102.30, 0.008, 0.038, 0.994, 19:16:25.979
134, -155589.44, -55812.21, -166666.94, -139616.28, -146542.80, -152218.22, -135701.33, -178120.31, 0.000, 0.000, 0.000, 19:16:25.979
135, -155528.89, -56956.29, -166608.42, -139501.19, -146485.73, -152105.42, -135648.11, -178074.59, 0.000, 0.000, 0.000, 19:16:25.979
136, -155475.95, -56977.95, -166556.83, -139402.94, -146434.61, -152009.05, -135600.52, -178032.95, 0.000, 0.000, 0.000, 19:16:25.979
137, -155551.33, -55224.92, -166629.05, -139546.20, -146505.27, -152149.75, -135665.94, -178091.20, 0.000, 0.000, 0.000, 19:16:25.984
138, -155587.69, -55759.04, -166664.08, -139613.70, -146540.06, -152216.27, -135698.17, -178120.84, 0.000, 0.000, 0.000, 19:16:25.984
139, -155542.00, -56887.49, -166619.83, -139528.39, -146497.00, -152132.63, -135657.89, -178086.20, 0.000, 0.000, 0.000, 19:16:25.984
140, -155468.27, -57483.34, -166548.34, -139391.16, -146426.36, -151998.00, -135592.16, -178028.67, 0.000, 0.000, 0.000, 19:16:25.984
141, -155535.55, -55546.05, -166612.61, -139517.06, -146488.95, -152121.75, -135650.39, -178080.83, 0.000, 0.000, 0.000, 19:16:25.985
142, -155581.92, -55768.29, -166657.19, -139605.17, -146533.14, -152208.47, -135691.20, -178117.77, 0.000, 0.000, 0.000, 19:16:25.985
143, -155551.86, -56699.22, -166628.03, -139550.52, -146504.84, -152154.78, -135664.59, -178095.09, 0.006, 0.040, 0.992, 19:16:25.985
144, -155466.38, -57720.38, -166545.22, -139390.30, -146423.39, -151997.58, -135588.72, -178028.64, 0.000, 0.000, 0.000, 19:16:25.985
145, -155518.56, -55831.30, -166595.06, -139485.56, -146471.83, -152091.39, -135633.91, -178069.64, 0.000, 0.000, 0.000, 19:16:25.985
146, -155578.16, -55643.01, -166652.45, -139597.17, -146528.42, -152201.14, -135686.34, -178117.06, 0.000, 0.000, 0.000, 19:16:25.986
147, -155562.91, -56474.56, -166637.64, -139571.42, -146514.19, -152175.80, -135672.72, -178105.67, 0.000, 0.000, 0.000, 19:16:25.986
148, -155474.81, -57724.65, -166552.36, -139405.05, -146430.61, -152012.55, -135594.81, -178037.88, 0.000, 0.000, 0.000, 19:16:25.986
149, -155502.47, -56180.79, -166578.41, -139454.41, -146455.69, -152061.17, -135618.25, -178059.44, 0.000, 0.000, 0.000, 19:16:25.986
150, -155569.67, -55545.49, -166643.22, -139583.05, -146519.19, -152187.61, -135677.03, -178111.92, 0.000, 0.000, 0.000, 19:16:25.986
151, -155570.45, -56327.45, -166643.89, -139585.45, -146520.28, -152190.23, -135677.83, -178113.58, 0.000, 0.000, 0.000, 19:16:25.987
152, -155485.91, -57684.71, -166561.97, -139426.31, -146440.11, -152034.13, -135603.06, -178048.56, 0.000, 0.000, 0.000, 19:16:25.987
153, -155483.56, -56604.38, -166559.19, -139421.48, -146436.80, -152029.44, -135599.98, -178046.53, 0.006, 0.038, 0.996, 19:16:25.987
154, -155559.00, -55485.81, -166631.75, -139565.05, -146507.80, -152170.53, -135665.86, -178105.33, 0.000, 0.000, 0.000, 19:16:25.987
155, -155569.19, -56151.80, -166641.41, -139587.80, -146517.58, -152192.94, -135674.45, -178113.53, 0.000, 0.000, 0.000, 19:16:25.987
156, -155495.30, -57463.81, -166569.86, -139448.91, -146447.70, -152056.66, -135609.30, -178056.98, 0.000, 0.000, 0.000, 19:16:25.988
157, -155463.86, -56987.58, -166539.06, -139390.22, -146416.92, -151999.05, -135580.48, -178032.13, 0.000, 0.000, 0.000, 19:16:25.988
158, -155544.53, -55467.55, -166616.42, -139541.00, -146492.66, -152147.25, -135650.86, -178095.09, 0.000, 0.000, 0.000, 19:16:25.988
159, -155570.44, -56042.82, -166641.48, -139590.02, -146517.53, -152195.59, -135673.88, -178116.50, 0.000, 0.000, 0.000, 19:16:25.988
160, -155509.95, -57223.91, -166582.83, -139477.92, -146460.45, -152085.53, -135620.45, -178070.13, 0.000, 0.000, 0.000, 19:16:25.988
161, -155454.67, -57347.45, -166529.09, -139373.16, -146407.39, -151982.83, -135570.98, -178027.22, 0.000, 0.000, 0.000, 19:16:25.988
162, -155526.92, -55549.54, -166598.09, -139511.89, -146474.64, -152119.02, -135633.27, -178082.42, 0.000, 0.000, 0.000, 19:16:25.989
163, -155560.89, -55942.14, -166630.78, -139579.28, -146507.03, -152185.25, -135662.97, -178109.28, 0.002, 0.042, 0.996, 19:16:25.989
164, -155518.31, -56952.71, -166589.58, -139500.09, -146467.00, -152107.61, -135625.44, -178077.14, 0.000, 0.000, 0.000, 19:16:25.989
165, -155444.39, -57637.73, -166517.78, -139359.86, -146396.30, -151970.06, -135559.69, -178020.03, 0.000, 0.000, 0.000, 19:16:25.990
166, -155509.66, -55693.64, -166580.14, -139481.11, -146457.08, -152089.31, -135616.20, -178070.69, 0.000, 0.000, 0.000, 19:16:25.990
167, -155557.05, -55816.53, -166625.91, -139572.36, -146502.16, -152179.03, -135657.88, -178108.22, 0.000, 0.000, 0.000, 19:16:25.990
168, -155531.59, -56696.52, -166601.22, -139525.22, -146478.39, -152132.81, -135635.52, -178089.42, 0.000, 0.000, 0.000, 19:16:25.990
169, -155446.39, -57745.24, -166518.56, -139363.92, -146397.27, -151974.58, -135560.05, -178023.61, 0.000, 0.000, 0.000, 19:16:25.990
170, -155492.19, -56004.06, -166562.20, -139448.95, -146439.59, -152058.38, -135599.36, -178059.13, 0.000, 0.000, 0.000, 19:16:25.991
171, -155551.02, -55761.39, -166618.86, -139561.89, -146495.30, -152169.36, -135650.92, -178105.33, 0.000, 0.000, 0.000, 19:16:25.991
172, -155540.91, -56521.28, -166609.05, -139543.61, -146485.97, -152151.42, -135642.00, -178098.38, 0.000, 0.000, 0.000, 19:16:25.991
173, -155454.83, -57794.61, -166525.78, -139379.58, -146404.41, -151990.50, -135566.28, -178032.55, 0.002, 0.042, 0.988, 19:16:25.991
174, -155475.13, -56349.39, -166544.72, -139416.92, -146422.45, -152027.31, -135583.02, -178047.94, 0.000, 0.000, 0.000, 19:16:25.991
175, -155545.53, -55639.61, -166612.44, -139550.42, -146488.95, -152158.38, -135644.66, -178103.14, 0.000, 0.000, 0.000, 19:16:25.992
176, -155548.16, -56381.96, -166614.97, -139557.05, -146491.77, -152164.95, -135646.98, -178106.14, 0.000, 0.000, 0.000, 19:16:25.992
177, -155464.02, -57734.87, -166533.45, -139399.80, -146412.03, -152010.67, -135572.56, -178041.27, 0.000, 0.000, 0.000, 19:16:25.992
178, -155456.38, -56756.04, -166525.45, -139384.52, -146403.66, -151995.86, -135564.78, -178035.08, 0.000, 0.000, 0.000, 19:16:25.992
179, -155530.56, -55567.24, -166596.63, -139527.56, -146473.34, -152136.42, -135629.22, -178092.34, 0.000, 0.000, 0.000, 19:16:25.992
180, -155543.69, -56221.77, -166609.16, -139555.39, -146485.92, -152163.88, -135640.44, -178102.97, 0.000, 0.000, 0.000, 19:16:25.993
181, -155473.19, -57562.22, -166540.92, -139422.41, -146419.34, -152033.30, -135578.34, -178049.28, 0.000, 0.000, 0.000, 19:16:25.993
182, -155436.08, -57250.44, -166504.55, -139353.22, -146383.16, -151965.44, -135544.58, -178019.81, 0.002, 0.046, 0.996, 19:16:25.993
183, -155515.55, -55629.64, -166580.89, -139502.69, -146457.75, -152112.38, -135613.91, -178081.73, 0.000, 0.000, 0.000, 19:16:25.993
184, -155542.97, -56196.89, -166607.33, -139555.39, -146484.13, -152164.14, -135638.22, -178104.11, 0.000, 0.000, 0.000, 19:16:25.993
185, -155486.59, -57346.24, -166552.59, -139450.25, -146430.92, -152061.03, -135588.30, -178061.13, 0.000, 0.000, 0.000, 19:16:25.993
186, -155426.52, -57572.21, -166494.19, -139336.75, -146373.25, -151949.67, -135534.58, -178014.34, 0.000, 0.000, 0.000, 19:16:25.994
187, -155499.98, -55693.23, -166564.61, -139475.28, -146441.94, -152085.88, -135598.39, -178071.30, 0.000, 0.000, 0.000, 19:16:25.994
188, -155538.72, -56035.96, -166601.83, -139549.30, -146478.75, -152158.73, -135632.33, -178102.19, 0.000, 0.000, 0.000, 19:16:25.994
189, -155498.75, -57059.40, -166563.05, -139475.69, -146441.05, -152086.45, -135596.92, -178071.64, 0.000, 0.000, 0.000, 19:16:25.994
190, -155418.42, -57809.72, -166485.13, -139326.59, -146364.34, -151940.14, -135525.42, -178008.95, 0.000, 0.000, 0.000, 19:16:25.994
191, -155480.34, -55886.04, -166544.31, -139441.83, -146421.92, -152053.48, -135579.11, -178057.13, 0.000, 0.000, 0.000, 19:16:25.994
192, -155530.27, -55935.37, -166592.48, -139537.67, -146469.34, -152147.66, -135622.95, -178096.69, 0.008, 0.046, 0.998, 19:16:25.995
193, -155505.95, -56807.56, -166568.84, -139494.58, -146446.56, -152105.38, -135601.34, -178078.33, 0.000, 0.000, 0.000, 19:16:25.995
194, -155421.44, -57937.78, -166487.00, -139332.97, -146366.34, -151946.80, -135526.73, -178013.63, 0.000, 0.000, 0.000, 19:16:25.995
195, -155461.39, -56188.35, -166524.84, -139407.95, -146402.92, -152020.69, -135560.64, -178044.11, 0.000, 0.000, 0.000, 19:16:25.995
196, -155520.69, -55803.90, -166581.80, -139523.16, -146458.86, -152133.98, -135612.25, -178090.20, 0.000, 0.000, 0.000, 19:16:25.995
197, -155513.44, -56531.56, -166574.73, -139510.28, -146452.22, -152121.31, -135605.84, -178085.47, 0.000, 0.000, 0.000, 19:16:25.996
198, -155428.27, -57886.12, -166492.30, -139347.61, -146371.53, -151961.61, -135530.83, -178020.47, 0.000, 0.000, 0.000, 19:16:25.996
199, -155445.33, -56509.12, -166508.22, -139377.11, -146386.63, -151990.73, -135545.06, -178033.84, 0.000, 0.000, 0.000, 19:16:25.996
200, -155519.44, -55678.60, -166579.55, -139515.58, -146456.77, -152126.97, -135610.27, -178092.45, 0.000, 0.000, 0.000, 19:16:25.996
201, -155525.28, -56365.60, -166585.16, -139527.56, -146462.80, -152138.91, -135615.45, -178098.02, 0.000, 0.000, 0.000, 19:16:25.996
202, -155443.56, -57674.63, -166506.14, -139374.66, -146385.53, -151988.75, -135543.39, -178035.14, 0.008, 0.048, 1.000, 19:16:25.997
203, -155431.48, -56831.52, -166493.84, -139349.91, -146372.94, -151964.61, -135531.81, -178025.69, 0.000, 0.000, 0.000, 19:16:25.997
204, -155505.80, -55534.56, -166565.11, -139493.64, -146442.64, -152105.98, -135596.11, -178082.88, 0.000, 0.000, 0.000, 19:16:25.997
205, -155520.89, -56147.69, -166579.41, -139525.55, -146456.98, -152137.25, -135609.03, -178094.78, 0.000, 0.000, 0.000, 19:16:25.997
206, -155451.66, -57431.60, -166512.52, -139396.42, -146391.50, -152010.50, -135547.98, -178041.63, 0.000, 0.000, 0.000, 19:16:25.997
207, -155410.09, -57184.16, -166471.83, -139318.34, -146351.19, -151933.88, -135510.33, -178009.11, 0.000, 0.000, 0.000, 19:16:25.997
208, -155486.38, -55501.75, -166544.98, -139464.08, -146422.66, -152077.08, -135576.53, -178067.98, 0.000, 0.000, 0.000, 19:16:25.998
209, -155515.30, -56010.25, -166572.80, -139520.08, -146450.28, -152132.16, -135601.92, -178091.27, 0.000, 0.000, 0.000, 19:16:25.998
210, -155463.66, -57130.14, -166522.81, -139422.78, -146401.63, -152036.61, -135556.52, -178052.30, 0.000, 0.000, 0.000, 19:16:25.998
211, -155401.91, -57460.57, -166462.83, -139303.94, -146342.39, -151920.22, -135501.61, -178004.77, 0.000, 0.000, 0.000, 19:16:25.998
212, -155475.23, -55591.31, -166532.98, -139440.41, -146410.94, -152054.48, -135565.38, -178061.95, 0.000, 0.042, 1.002, 19:16:25.998
213, -155516.44, -55879.34, -166572.64, -139519.14, -146450.17, -152131.75, -135601.61, -178094.89, 0.000, 0.000, 0.000, 19:16:25.998
214, -155479.22, -56836.39, -166536.66, -139451.39, -146415.19, -152065.34, -135568.73, -178066.59, 0.000, 0.000, 0.000, 19:16:25.999
215, -155398.17, -57660.28, -166458.08, -139299.23, -146337.92, -151916.16, -135496.72, -178003.66, 0.000, 0.000, 0.000, 19:16:25.999
216, -155454.97, -55727.90, -166512.27, -139406.28, -146390.58, -152021.34, -135545.63, -178047.31, 0.000, 0.000, 0.000, 19:16:25.999
217, -155508.30, -55732.11, -166563.61, -139507.42, -146441.09, -152120.80, -135592.36, -178089.47, 0.000, 0.000, 0.000, 19:16:25.999
218, -155489.66, -56624.66, -166545.48, -139472.63, -146423.81, -152086.67, -135575.97, -178076.13, 0.000, 0.000, 0.000, 19:16:25.999
219, -155400.20, -57788.89, -166458.84, -139305.45, -146338.86, -151922.66, -135496.78, -178006.88, 0.000, 0.000, 0.000, 19:16:26.000
220, -155436.91, -56076.30, -166493.48, -139373.09, -146372.36, -151989.27, -135527.98, -178035.02, 0.000, 0.000, 0.000, 19:16:26.000
221, -155502.78, -55632.35, -166557.08, -139496.92, -146434.78, -152110.91, -135585.92, -178087.23, 0.000, 0.000, 0.000, 19:16:26.000
222, -155497.92, -56376.26, -166552.34, -139488.92, -146430.55, -152103.14, -135581.78, -178084.55, 0.000, 0.044, 1.000, 19:16:26.000
223, -155409.69, -57703.24, -166466.83, -139323.83, -146346.80, -151941.09, -135503.80, -178016.38, 0.000, 0.000, 0.000, 19:16:26.000
224, -155417.33, -56388.42, -166473.47, -139339.00, -146352.75, -151956.14, -135509.06, -178021.45, 0.000, 0.000, 0.000, 19:16:26.454
225, -155488.14, -55487.11, -166541.44, -139475.55, -146419.39, -152090.25, -135570.61, -178076.25, 0.000, 0.000, 0.000, 19:16:26.454
226, -155496.88, -56239.16, -166549.92, -139492.63, -146428.16, -152107.22, -135578.48, -178084.30, 0.000, 0.000, 0.000, 19:16:26.455
227, -155420.08, -57594.59, -166475.70, -139346.45, -146355.50, -151963.84, -135510.95, -178025.92, 0.000, 0.000, 0.000, 19:16:26.455
228, -155402.91, -56830.58, -166458.64, -139311.80, -146338.36, -151930.02, -135495.06, -178012.70, 0.000, 0.000, 0.000, 19:16:26.455
229, -155483.48, -55442.29, -166536.00, -139462.30, -146414.16, -152077.89, -135565.61, -178075.84, 0.000, 0.000, 0.000, 19:16:26.455
230, -155504.41, -56052.07, -166556.19, -139502.11, -146434.34, -152117.03, -135584.16, -178093.34, 0.000, 0.000, 0.000, 19:16:26.455
231, -155439.38, -57338.13, -166493.41, -139379.70, -146372.94, -151997.05, -135526.89, -178043.78, 0.000, 0.000, 0.000, 19:16:26.455
232, -155388.19, -57208.15, -166443.28, -139287.47, -146323.39, -151906.55, -135480.27, -178002.63, 0.000, 0.040, 0.994, 19:16:26.456
233, -155467.95, -55482.55, -166519.73, -139435.97, -146398.25, -152052.63, -135549.95, -178065.03, 0.000, 0.000, 0.000, 19:16:26.456
234, -155504.05, -55974.55, -166554.63, -139501.25, -146432.83, -152116.78, -135582.25, -178094.94, 0.000, 0.000, 0.000, 19:16:26.456
235, -155451.81, -57070.26, -166504.00, -139406.47, -146383.41, -152023.63, -135535.92, -178054.59, 0.000, 0.000, 0.000, 19:16:26.456
236, -155382.08, -57509.83, -166436.25, -139276.36, -146316.61, -151896.02, -135473.53, -178000.09, 0.000, 0.000, 0.000, 19:16:26.457
237, -155452.27, -55578.15, -166503.44, -139407.58, -146382.16, -152025.09, -135534.42, -178054.66, 0.000, 0.000, 0.000, 19:16:26.457
238, -155493.70, -55834.07, -166543.33, -139488.66, -146421.56, -152104.75, -135570.61, -178087.36, 0.000, 0.000, 0.000, 19:16:26.457
239, -155457.09, -56798.73, -166507.69, -139424.45, -146386.98, -152041.75, -135537.89, -178058.77, 0.000, 0.000, 0.000, 19:16:26.458
240, -155374.69, -57715.20, -166427.70, -139268.95, -146308.41, -151889.11, -135464.69, -177994.89, 0.000, 0.000, 0.000, 19:16:26.458
241, -155430.31, -55804.41, -166480.95, -139371.44, -146360.14, -151989.98, -135513.02, -178038.39, 0.002, 0.036, 0.992, 19:16:26.459
242, -155487.41, -55745.36, -166536.00, -139478.55, -146414.20, -152095.33, -135563.33, -178083.81, 0.000, 0.000, 0.000, 19:16:26.459
243, -155472.05, -56565.36, -166521.03, -139449.72, -146399.92, -152067.00, -135549.84, -178072.91, 0.000, 0.000, 0.000, 19:16:26.459
244, -155383.83, -57800.29, -166435.64, -139283.30, -146316.28, -151903.70, -135471.91, -178004.97, 0.000, 0.000, 0.000, 19:16:26.459
245, -155414.73, -56145.32, -166464.77, -139340.80, -146344.38, -151960.36, -135498.03, -178028.67, 0.000, 0.000, 0.000, 19:16:26.459
246, -155481.44, -55598.20, -166528.94, -139467.08, -146407.44, -152084.50, -135556.42, -178081.11, 0.000, 0.000, 0.000, 19:16:26.459
247, -155479.00, -56343.58, -166526.55, -139463.91, -146405.47, -152081.63, -135554.31, -178080.20, 0.000, 0.000, 0.000, 19:16:26.460
248, -155393.81, -57674.56, -166444.22, -139303.05, -146324.91, -151923.75, -135479.28, -178014.89, 0.000, 0.000, 0.000, 19:16:26.460
249, -155397.95, -56503.87, -166447.52, -139309.80, -146327.75, -151930.41, -135481.83, -178017.80, 0.000, 0.000, 0.000, 19:16:26.460
250, -155472.38, -55508.97, -166518.95, -139451.14, -146397.78, -152069.38, -135546.81, -178075.83, 0.000, 0.000, 0.000, 19:16:26.460
251, -155482.28, -56193.13, -166528.48, -139471.48, -146407.45, -152089.53, -135555.59, -178084.41, 0.000, 0.042, 0.994, 19:16:26.460
252, -155405.61, -57501.40, -166454.31, -139327.45, -146334.88, -151948.19, -135487.91, -178025.58, 0.000, 0.000, 0.000, 19:16:26.460
253, -155381.00, -56875.58, -166430.02, -139280.42, -146310.52, -151902.09, -135465.11, -178006.14, 0.000, 0.000, 0.000, 19:16:26.461
254, -155457.19, -55440.95, -166502.98, -139426.80, -146381.91, -152045.84, -135531.19, -178064.88, 0.000, 0.000, 0.000, 19:16:26.461
255, -155479.88, -56051.18, -166524.84, -139470.41, -146403.73, -152088.84, -135551.25, -178083.58, 0.000, 0.000, 0.000, 19:16:26.461
0, -155419.47, -57272.57, -166466.38, -139355.45, -146346.80, -151975.89, -135498.14, -178037.89, 0.000, 0.000, 0.000, 19:16:26.461
1, -155368.47, -57264.32, -166416.63, -139259.14, -146297.61, -151881.48, -135452.30, -177998.05, 0.000, 0.000, 0.000, 19:16:26.461
2, -155442.14, -55482.66, -166487.28, -139400.81, -146366.64, -152020.73, -135516.16, -178054.75, 0.000, 0.000, 0.000, 19:16:26.461
3, -155476.98, -55918.18, -166520.84, -139466.92, -146399.89, -152085.67, -135546.97, -178082.95, 0.000, 0.000, 0.000, 19:16:26.461
4, -155430.81, -56961.16, -166475.98, -139380.88, -146356.14, -152001.30, -135506.13, -178047.70, 0.000, 0.000, 0.000, 19:16:26.462
5, -155358.23, -57525.63, -166405.42, -139244.81, -146286.69, -151867.83, -135441.44, -177991.09, 0.002, 0.040, 0.998, 19:16:26.462
6, -155425.33, -55608.70, -166469.73, -139370.81, -146349.36, -151991.80, -135499.56, -178043.16, 0.000, 0.000, 0.000, 19:16:26.462
7, -155468.00, -55790.78, -166510.75, -139455.23, -146389.84, -152074.67, -135536.75, -178076.55, 0.000, 0.000, 0.000, 19:16:26.462
8, -155437.80, -56702.57, -166481.47, -139400.31, -146361.44, -152020.67, -135510.00, -178053.66, 0.000, 0.000, 0.000, 19:16:26.462
9, -155351.39, -57671.84, -166397.73, -139239.38, -146279.11, -151862.69, -135433.34, -177986.52, 0.000, 0.000, 0.000, 19:16:26.462
10, -155401.69, -55800.61, -166445.61, -139332.91, -146325.64, -151954.75, -135476.63, -178025.42, 0.000, 0.000, 0.000, 19:16:26.463
11, -155461.98, -55654.01, -166503.81, -139445.20, -146382.95, -152065.23, -135529.75, -178073.56, 0.000, 0.000, 0.000, 19:16:26.463
12, -155448.83, -56470.70, -166491.03, -139421.14, -146370.80, -152041.77, -135518.13, -178064.20, 0.000, 0.000, 0.000, 19:16:26.463
13, -155357.98, -57731.78, -166402.92, -139251.92, -146284.39, -151875.77, -135437.44, -177993.63, 0.000, 0.000, 0.000, 19:16:26.463
14, -155384.56, -56159.92, -166427.84, -139300.45, -146308.34, -151923.55, -135459.77, -178014.06, 0.000, 0.000, 0.000, 19:16:26.463
15, -155453.67, -55557.02, -166494.41, -139430.95, -146373.66, -152051.80, -135520.50, -178068.55, 0.002, 0.038, 0.998, 19:16:26.463
16, -155451.50, -56321.70, -166492.17, -139430.42, -146371.80, -152051.27, -135518.42, -178067.27, 0.000, 0.000, 0.000, 19:16:26.464
17, -155367.42, -57655.25, -166410.88, -139271.80, -146292.20, -151895.56, -135444.34, -178002.64, 0.000, 0.000, 0.000, 19:16:26.464
18, -155366.28, -56521.26, -166409.11, -139268.28, -146290.16, -151892.25, -135442.31, -178001.64, 0.000, 0.000, 0.000, 19:16:26.464
19, -155443.66, -55439.16, -166483.56, -139413.75, -146363.08, -152035.22, -135510.03, -178062.53, 0.000, 0.000, 0.000, 19:16:26.464
20, -155454.72, -56139.11, -166494.03, -139437.28, -146373.81, -152058.44, -135519.56, -178071.63, 0.000, 0.000, 0.000, 19:16:26.464
21, -155381.30, -57429.95, -166422.92, -139298.66, -146304.28, -151922.44, -135454.86, -178015.41, 0.000, 0.000, 0.000, 19:16:26.464
22, -155351.03, -56899.80, -166393.11, -139241.22, -146274.55, -151866.23, -135427.16, -177991.50, 0.000, 0.000, 0.000, 19:16:26.465
23, -155430.14, -55392.47, -166468.98, -139390.59, -146348.94, -152013.06, -135496.14, -178053.13, 0.000, 0.000, 0.000, 19:16:26.465
24, -155453.83, -56030.82, -166491.77, -139437.22, -146371.59, -152058.84, -135516.98, -178072.23, 0.000, 0.000, 0.000, 19:16:26.465
25, -155392.77, -57195.86, -166432.77, -139324.63, -146313.98, -151948.30, -135462.98, -178025.41, 0.004, 0.038, 0.996, 19:16:26.465
26, -155337.56, -57260.29, -166379.00, -139220.09, -146260.80, -151845.81, -135413.61, -177982.44, 0.000, 0.000, 0.000, 19:16:26.465
27, -155410.11, -55474.79, -166448.31, -139359.14, -146328.39, -151982.33, -135476.16, -178037.98, 0.000, 0.000, 0.000, 19:16:26.465
28, -155441.77, -55873.30, -166478.67, -139424.02, -146358.34, -152046.03, -135503.41, -178062.44, 0.000, 0.000, 0.000, 19:16:26.465
29, -155401.28, -56934.18, -166439.59, -139346.81, -146320.42, -151970.41, -135468.05, -178032.39, 0.000, 0.000, 0.000, 19:16:26.466
30, -155329.58, -57556.66, -166370.05, -139208.92, -146252.02, -151835.11, -135404.63, -177977.45, 0.000, 0.000, 0.000, 19:16:26.466
31, -155393.03, -55631.84, -166430.66, -139328.61, -146311.09, -151952.77, -135459.45, -178026.36, 0.000, 0.000, 0.000, 19:16:26.466
32, -155443.84, -55758.13, -166479.72, -139423.16, -146359.55, -152045.84, -135504.41, -178067.20, 0.000, 0.000, 0.000, 19:16:26.466
33, -155419.41, -56660.98, -166456.03, -139377.00, -146336.86, -152000.63, -135483.13, -178049.55, 0.000, 0.000, 0.000, 19:16:26.466
34, -155332.45, -57707.40, -166371.77, -139214.03, -146254.00, -151840.63, -135405.97, -177982.06, 0.004, 0.040, 0.992, 19:16:26.466
35, -155376.45, -55887.99, -166413.67, -139297.36, -146294.42, -151922.72, -135443.45, -178015.56, 0.000, 0.000, 0.000, 19:16:26.466
36, -155438.19, -55631.61, -166473.13, -139413.02, -146353.09, -152036.50, -135497.75, -178064.72, 0.000, 0.000, 0.000, 19:16:26.466
37, -155428.69, -56408.38, -166463.69, -139395.22, -146344.33, -152018.97, -135489.39, -178058.34, 0.000, 0.000, 0.000, 19:16:26.467
38, -155336.81, -57696.76, -166374.84, -139225.39, -146257.16, -151852.22, -135407.98, -177986.95, 0.000, 0.000, 0.000, 19:16:26.467
39, -155355.92, -56220.92, -166392.50, -139261.80, -146273.91, -151888.17, -135423.41, -178001.03, 0.000, 0.000, 0.000, 19:16:26.467
40, -155425.42, -55518.63, -166459.27, -139394.22, -146339.41, -152018.33, -135484.14, -178055.27, 0.000, 0.000, 0.000, 19:16:26.467
41, -155428.58, -56242.33, -166462.36, -139401.30, -146342.78, -152025.27, -135487.08, -178058.70, 0.000, 0.000, 0.000, 19:16:26.468
42, -155343.61, -57576.21, -166380.03, -139243.20, -146262.25, -151870.13, -135411.80, -177993.02, 0.000, 0.000, 0.000, 19:16:26.468
43, -155335.92, -56565.98, -166371.88, -139228.05, -146253.69, -151855.44, -135403.88, -177986.48, 0.000, 0.000, 0.000, 19:16:26.468
44, -155413.39, -55412.74, -166446.38, -139374.34, -146326.61, -151999.20, -135471.59, -178047.16, 0.000, 0.044, 0.996, 19:16:26.468
45, -155429.31, -56105.22, -166461.75, -139405.05, -146342.20, -152029.34, -135485.70, -178060.67, 0.000, 0.000, 0.000, 19:16:26.468
46, -155358.64, -57405.16, -166393.36, -139271.70, -146275.48, -151898.56, -135423.56, -178006.77, 0.000, 0.000, 0.000, 19:16:26.468
47, -155322.11, -57026.43, -166357.56, -139203.34, -146239.91, -151831.59, -135390.34, -177977.88, 0.000, 0.000, 0.000, 19:16:26.468
48, -155402.89, -55433.40, -166435.20, -139354.16, -146315.91, -151979.91, -135460.98, -178041.19, 0.000, 0.000, 0.000, 19:16:26.469
49, -155430.69, -55964.50, -166461.91, -139406.94, -146342.52, -152031.78, -135485.47, -178063.89, 0.000, 0.000, 0.000, 19:16:26.469
50, -155371.33, -57127.84, -166404.34, -139298.69, -146286.16, -151925.50, -135432.75, -178017.75, 0.000, 0.000, 0.000, 19:16:26.469
51, -155311.50, -57328.89, -166346.08, -139185.73, -146228.77, -151814.70, -135379.19, -177971.20, 0.000, 0.000, 0.000, 19:16:26.469
52, -155384.50, -55493.86, -166416.06, -139323.83, -146297.02, -151950.47, -135442.52, -178027.70, 0.000, 0.000, 0.000, 19:16:26.469
53, -155421.75, -55844.36, -166451.95, -139396.50, -146332.44, -152021.81, -135475.19, -178057.19, 0.000, 0.000, 0.000, 19:16:26.469
54, -155382.33, -56858.45, -166413.67, -139323.38, -146295.41, -151950.08, -135440.44, -178027.30, 0.006, 0.046, 0.988, 19:16:26.470
55, -155304.00, -57586.50, -166337.58, -139176.28, -146220.45, -151805.75, -135370.78, -177966.45, 0.000, 0.000, 0.000, 19:16:26.470
56, -155366.33, -55643.19, -166397.16, -139291.95, -146278.53, -151919.48, -135424.72, -178014.81, 0.000, 0.000, 0.000, 19:16:26.470
57, -155417.23, -55731.48, -166446.23, -139388.61, -146326.94, -152014.52, -135469.50, -178055.31, 0.000, 0.000, 0.000, 19:16:26.470
58, -155392.83, -56607.11, -166422.50, -139345.17, -146303.98, -151971.89, -135447.88, -178036.94, 0.000, 0.000, 0.000, 19:16:26.471
59, -155304.09, -57675.68, -166336.36, -139179.39, -146219.39, -151809.17, -135369.00, -177967.84, 0.000, 0.000, 0.000, 19:16:26.471
60, -155343.02, -55944.65, -166373.27, -139253.78, -146254.97, -151882.31, -135401.92, -177997.34, 0.000, 0.000, 0.000, 19:16:26.471
61, -155403.61, -55629.24, -166431.58, -139370.41, -146312.33, -151996.89, -135454.97, -178044.80, 0.000, 0.000, 0.000, 19:16:26.471
62, -155395.89, -56380.22, -166424.02, -139357.06, -146305.50, -151983.86, -135448.30, -178039.86, 0.000, 0.000, 0.000, 19:16:26.471
63, -155310.42, -57701.65, -166341.28, -139193.94, -146224.53, -151823.77, -135372.95, -177974.63, 0.000, 0.000, 0.000, 19:16:26.471
64, -155325.67, -56312.87, -166355.47, -139221.84, -146237.83, -151851.38, -135385.41, -177986.11, 0.004, 0.044, 0.992, 19:16:26.471
65, -155395.56, -55527.81, -166422.59, -139356.13, -146303.67, -151983.28, -135446.34, -178040.48, 0.000, 0.000, 0.000, 19:16:26.472
66, -155402.55, -56237.01, -166429.27, -139369.20, -146310.64, -151996.19, -135452.78, -178047.11, 0.000, 0.000, 0.000, 19:16:26.472
67, -155322.17, -57568.79, -166351.53, -139217.33, -146234.63, -151847.27, -135381.92, -177985.55, 0.000, 0.000, 0.000, 19:16:26.472
68, -155309.09, -56689.36, -166338.23, -139191.89, -146221.00, -151822.41, -135369.17, -177974.95, 0.000, 0.000, 0.000, 19:16:26.472
69, -155387.88, -55415.67, -166414.00, -139340.23, -146295.22, -151968.20, -135437.94, -178036.53, 0.000, 0.000, 0.000, 19:16:26.474
70, -155404.45, -56041.54, -166429.94, -139373.50, -146311.19, -152001.05, -135452.53, -178050.14, 0.000, 0.000, 0.000, 19:16:26.475
71, -155334.89, -57331.04, -166362.63, -139243.70, -146245.38, -151873.66, -135391.13, -177996.77, 0.000, 0.000, 0.000, 19:16:26.475
72, -155295.05, -57073.41, -166323.77, -139167.64, -146206.83, -151798.97, -135355.30, -177965.80, 0.000, 0.000, 0.000, 19:16:26.475
73, -155374.88, -55435.68, -166400.39, -139317.09, -146281.86, -151945.83, -135425.08, -178028.23, 0.000, 0.000, 0.000, 19:16:26.476
74, -155402.73, -55961.21, -166427.03, -139371.89, -146308.41, -151999.77, -135449.42, -178050.41, 0.004, 0.048, 0.994, 19:16:26.476
75, -155348.59, -57081.19, -166374.63, -139271.91, -146257.30, -151901.59, -135401.61, -178008.92, 0.000, 0.000, 0.000, 19:16:26.476
76, -155284.36, -57374.04, -166312.19, -139150.94, -146195.67, -151782.95, -135344.17, -177958.91, 0.000, 0.000, 0.000, 19:16:26.476
77, -155355.44, -55453.76, -166380.19, -139285.36, -146262.02, -151915.06, -135405.67, -178013.88, 0.000, 0.000, 0.000, 19:16:26.476
78, -155397.25, -55838.54, -166420.59, -139364.48, -146301.97, -151992.95, -135442.61, -178047.48, 0.000, 0.000, 0.000, 19:16:26.476
79, -155358.31, -56841.85, -166382.67, -139294.81, -146265.14, -151924.59, -135407.98, -178017.31, 0.000, 0.000, 0.000, 19:16:26.477
80, -155279.38, -57677.02, -166306.16, -139145.03, -146189.88, -151777.59, -135338.11, -177956.47, 0.000, 0.000, 0.000, 19:16:26.477
81, -155338.73, -55773.77, -166362.94, -139254.83, -146245.16, -151885.50, -135389.56, -178002.78, 0.000, 0.000, 0.000, 19:16:26.477
82, -155391.44, -55778.22, -166413.69, -139355.39, -146295.27, -151984.33, -135435.83, -178044.53, 0.000, 0.000, 0.000, 19:16:26.477
83, -155369.86, -56618.38, -166392.64, -139317.38, -146275.00, -151947.17, -135416.56, -178028.20, 0.002, 0.046, 1.000, 19:16:26.477
84, -155281.67, -57807.96, -166307.23, -139151.47, -146191.13, -151784.45, -135338.53, -177960.02, 0.000, 0.000, 0.000, 19:16:26.477
85, -155317.08, -56092.17, -166340.73, -139218.22, -146223.45, -151849.97, -135368.47, -177986.91, 0.000, 0.000, 0.000, 19:16:26.478
86, -155382.92, -55652.40, -166404.17, -139341.70, -146285.84, -151971.36, -135426.38, -178039.06, 0.000, 0.000, 0.000, 19:16:26.478
87, -155378.80, -56392.40, -166400.11, -139334.17, -146282.19, -151964.13, -135422.84, -178036.94, 0.000, 0.000, 0.000, 19:16:26.479
88, -155291.31, -57729.64, -166315.39, -139169.84, -146199.20, -151802.77, -135345.48, -177969.59, 0.000, 0.000, 0.000, 19:16:26.479
89, -155299.16, -56434.38, -166322.16, -139185.52, -146205.34, -151818.34, -135350.98, -177974.81, 0.000, 0.000, 0.000, 19:16:26.932
90, -155371.03, -55532.04, -166391.30, -139323.06, -146273.09, -151953.50, -135413.75, -178030.77, 0.000, 0.000, 0.000, 19:16:26.932
91, -155379.89, -56231.62, -166399.75, -139340.14, -146281.95, -151970.28, -135421.70, -178038.80, 0.000, 0.000, 0.000, 19:16:26.933
92, -155300.36, -57561.26, -166322.91, -139190.98, -146206.67, -151823.92, -135351.45, -177977.59, 0.000, 0.000, 0.000, 19:16:26.933
93, -155282.17, -56792.81, -166304.80, -139155.78, -146188.41, -151789.58, -135334.53, -177963.33, 0.004, 0.052, 0.996, 19:16:26.933
94, -155360.69, -55415.70, -166380.17, -139304.31, -146262.25, -151935.53, -135402.95, -178024.64, 0.000, 0.000, 0.000, 19:16:26.933
95, -155377.86, -56022.50, -166396.58, -139340.23, -146278.66, -151970.80, -135417.80, -178038.36, 0.000, 0.000, 0.000, 19:16:26.933
96, -155312.80, -57287.88, -166333.66, -139217.59, -146217.28, -151850.45, -135360.59, -177988.70, 0.000, 0.000, 0.000, 19:16:26.933
97, -155266.55, -57141.79, -166288.50, -139130.81, -146172.58, -151765.25, -135318.86, -177952.41, 0.000, 0.000, 0.000, 19:16:26.933
98, -155344.11, -55399.38, -166362.94, -139277.11, -146245.27, -151909.11, -135386.33, -178012.53, 0.000, 0.000, 0.000, 19:16:26.934
99, -155373.59, -55906.76, -166391.25, -139335.45, -146273.28, -151966.52, -135412.00, -178035.95, 0.000, 0.000, 0.000, 19:16:26.934
100, -155323.14, -57013.09, -166342.45, -139242.13, -146225.78, -151874.95, -135367.53, -177997.59, 0.000, 0.000, 0.000, 19:16:26.934
101, -155258.25, -57446.89, -166279.52, -139117.31, -146163.75, -151752.58, -135309.95, -177947.73, 0.000, 0.000, 0.000, 19:16:26.934
102, -155328.22, -55540.30, -166346.50, -139248.61, -146229.11, -151881.69, -135370.70, -178002.09, 0.000, 0.000, 0.000, 19:16:26.934
103, -155371.58, -55792.43, -166388.17, -139331.30, -146270.30, -151962.95, -135408.78, -178036.59, 0.002, 0.048, 0.996, 19:16:26.934
104, -155337.95, -56731.95, -166355.53, -139269.80, -146238.66, -151902.66, -135379.06, -178011.14, 0.000, 0.000, 0.000, 19:16:26.935
105, -155254.81, -57612.54, -166274.94, -139113.88, -146159.38, -151749.55, -135305.25, -177946.61, 0.000, 0.000, 0.000, 19:16:26.935
106, -155307.56, -55723.16, -166325.06, -139213.64, -146208.09, -151847.64, -135350.41, -177986.95, 0.000, 0.000, 0.000, 19:16:26.935
107, -155362.23, -55697.13, -166377.73, -139318.06, -146260.00, -151950.38, -135398.38, -178030.13, 0.000, 0.000, 0.000, 19:16:26.935
108, -155345.53, -56531.49, -166361.53, -139287.69, -146244.42, -151920.52, -135383.66, -178018.05, 0.000, 0.000, 0.000, 19:16:26.935
109, -155257.31, -57727.96, -166276.13, -139121.44, -146160.67, -151757.36, -135305.59, -177950.08, 0.000, 0.000, 0.000, 19:16:26.935
110, -155288.50, -56048.96, -166305.56, -139179.53, -146188.98, -151814.67, -135331.94, -177973.86, 0.000, 0.000, 0.000, 19:16:26.936
111, -155354.75, -55529.18, -166369.33, -139305.23, -146251.61, -151938.19, -135389.97, -178025.92, 0.000, 0.000, 0.000, 19:16:26.936
112, -155352.48, -56287.10, -166366.95, -139302.02, -146249.77, -151935.02, -135388.00, -178025.16, 0.000, 0.000, 0.000, 19:16:26.936
113, -155265.20, -57633.32, -166282.38, -139138.83, -146166.95, -151774.84, -135310.69, -177957.63, 0.002, 0.046, 1.004, 19:16:26.936
114, -155270.83, -56423.45, -166287.30, -139147.63, -146171.38, -151783.69, -135314.81, -177961.98, 0.000, 0.000, 0.000, 19:16:26.936
115, -155342.42, -55428.95, -166356.00, -139285.94, -146238.72, -151919.66, -135377.05, -178017.36, 0.000, 0.000, 0.000, 19:16:26.936
116, -155352.67, -56153.88, -166365.80, -139306.44, -146248.67, -151939.91, -135386.13, -178026.30, 0.000, 0.000, 0.000, 19:16:26.937
117, -155277.94, -57494.92, -166293.70, -139164.28, -146178.19, -151800.45, -135320.52, -177969.59, 0.000, 0.000, 0.000, 19:16:26.937
118, -155254.78, -56817.35, -166270.73, -139119.27, -146155.22, -151756.31, -135299.17, -177951.50, 0.000, 0.000, 0.000, 19:16:26.937
119, -155332.13, -55353.76, -166344.88, -139266.67, -146227.66, -151901.25, -135366.23, -178011.20, 0.000, 0.000, 0.000, 19:16:26.937
120, -155355.28, -55982.11, -166367.25, -139310.59, -146249.94, -151944.47, -135386.80, -178030.47, 0.000, 0.000, 0.000, 19:16:26.937
121, -155292.14, -57251.22, -166306.06, -139192.58, -146190.23, -151828.64, -135331.06, -177982.17, 0.000, 0.000, 0.000, 19:16:26.937
122, -155243.03, -57252.67, -166258.22, -139098.64, -146142.98, -151736.59, -135287.11, -177944.16, 0.000, 0.000, 0.000, 19:16:26.937
123, -155319.45, -55551.21, -166331.44, -139242.89, -146214.48, -151878.42, -135353.53, -178003.34, 0.002, 0.044, 1.004, 19:16:26.938
124, -155350.19, -56128.13, -166361.08, -139304.66, -146243.80, -151939.11, -135380.28, -178027.53, 0.000, 0.000, 0.000, 19:16:26.938
125, -155302.50, -57342.75, -166314.88, -139217.03, -146198.86, -151853.08, -135338.16, -177991.16, 0.000, 0.000, 0.000, 19:16:26.938
126, -155232.28, -57994.95, -166246.84, -139083.84, -146131.77, -151722.31, -135275.81, -177937.00, 0.000, 0.000, 0.000, 19:16:26.938
127, -155299.13, -56129.30, -166310.63, -139209.75, -146194.00, -151846.06, -135333.59, -177988.61, 0.000, 0.000, 0.000, 19:16:26.939
128, -155344.64, -56360.19, -166354.48, -139296.64, -146237.31, -151931.50, -135373.58, -178024.86, 0.000, 0.000, 0.000, 19:16:26.939
129, -155314.47, -57263.56, -166325.19, -139241.50, -146209.03, -151877.45, -135346.77, -178002.16, 0.000, 0.000, 0.000, 19:16:26.939
130, -155228.81, -58071.60, -166242.13, -139081.33, -146127.36, -151720.27, -135270.67, -177935.45, 0.000, 0.000, 0.000, 19:16:26.939
131, -155279.83, -55984.52, -166290.77, -139175.81, -146174.55, -151813.25, -135314.63, -177974.95, 0.000, 0.000, 0.000, 19:16:26.939
132, -155337.48, -55656.24, -166346.30, -139285.31, -146229.22, -151920.88, -135365.20, -178020.55, 0.000, 0.000, 0.000, 19:16:26.940
133, -155322.00, -56310.23, -166330.98, -139258.72, -146214.63, -151894.92, -135351.25, -178008.91, 0.004, 0.046, 0.992, 19:16:26.940
134, -155233.52, -57446.60, -166245.34, -139092.02, -146130.69, -151731.34, -135272.95, -177940.72, 0.000, 0.000, 0.000, 19:16:26.941
135, -155259.06, -55868.38, -166269.33, -139140.16, -146153.67, -151778.59, -135294.28, -177960.06, 0.000, 0.000, 0.000, 19:16:26.941
136, -155329.02, -55288.94, -166336.77, -139271.28, -146219.78, -151907.39, -135355.77, -178015.36, 0.000, 0.000, 0.000, 19:16:26.941
137, -155330.09, -56124.29, -166337.78, -139273.77, -146221.20, -151909.92, -135356.95, -178017.44, 0.000, 0.000, 0.000, 19:16:26.942
138, -155245.17, -57582.52, -166255.67, -139114.17, -146140.84, -151753.41, -135282.05, -177952.11, 0.000, 0.000, 0.000, 19:16:26.942
139, -155244.19, -56538.27, -166254.08, -139111.17, -146138.63, -151750.72, -135280.08, -177950.97, 0.000, 0.000, 0.000, 19:16:26.942
140, -155320.08, -55460.22, -166326.92, -139254.97, -146210.20, -151892.09, -135346.45, -178010.38, 0.000, 0.000, 0.000, 19:16:26.943
141, -155332.45, -56121.59, -166338.91, -139279.59, -146222.17, -151916.44, -135357.36, -178020.89, 0.000, 0.000, 0.000, 19:16:26.943
142, -155258.97, -57446.64, -166267.83, -139140.72, -146152.83, -151780.13, -135292.52, -177964.78, 0.004, 0.042, 0.992, 19:16:26.943
143, -155229.75, -56898.24, -166239.08, -139084.98, -146124.17, -151725.48, -135265.94, -177941.98, 0.000, 0.000, 0.000, 19:16:26.943
144, -155307.58, -55391.27, -166313.73, -139233.02, -146197.19, -151870.98, -135333.59, -178002.33, 0.000, 0.000, 0.000, 19:16:26.943
145, -155329.22, -56034.68, -166334.44, -139277.45, -146217.94, -151914.52, -135352.38, -178019.50, 0.000, 0.000, 0.000, 19:16:26.943
146, -155270.98, -57232.69, -166278.16, -139167.19, -146163.03, -151806.36, -135301.20, -177975.41, 0.000, 0.000, 0.000, 19:16:26.943
147, -155215.14, -57299.68, -166223.80, -139062.47, -146109.23, -151703.59, -135251.05, -177931.61, 0.000, 0.000, 0.000, 19:16:26.944
148, -155290.28, -55471.02, -166295.78, -139204.27, -146179.53, -151843.03, -135316.31, -177989.86, 0.000, 0.000, 0.000, 19:16:26.944
149, -155325.86, -55869.28, -166330.08, -139272.83, -146213.44, -151910.58, -135347.59, -178018.34, 0.000, 0.000, 0.000, 19:16:26.944
150, -155281.97, -56958.81, -166287.52, -139191.84, -146172.05, -151831.27, -135308.78, -177985.02, 0.000, 0.000, 0.000, 19:16:26.944
151, -155208.92, -57629.77, -166216.63, -139052.86, -146102.31, -151694.89, -135243.86, -177928.55, 0.000, 0.000, 0.000, 19:16:26.944
152, -155274.75, -55649.76, -166279.52, -139175.14, -146163.55, -151815.09, -135300.94, -177979.72, -0.002, 0.044, 0.994, 19:16:26.944
153, -155320.70, -55763.11, -166323.89, -139264.78, -146207.30, -151903.09, -135341.19, -178015.92, 0.000, 0.000, 0.000, 19:16:26.944
154, -155295.63, -56625.55, -166299.59, -139217.59, -146183.91, -151856.78, -135319.28, -177997.69, 0.000, 0.000, 0.000, 19:16:26.944
155, -155211.11, -57699.39, -166217.61, -139057.16, -146103.53, -151699.45, -135244.41, -177932.63, 0.000, 0.000, 0.000, 19:16:26.945
156, -155255.81, -55918.00, -166260.09, -139141.70, -146144.69, -151782.67, -135282.47, -177966.78, 0.000, 0.000, 0.000, 19:16:26.945
157, -155315.45, -55693.10, -166317.58, -139255.08, -146201.14, -151894.09, -135334.89, -178013.80, 0.000, 0.000, 0.000, 19:16:26.945
158, -155304.86, -56471.03, -166307.23, -139235.92, -146191.38, -151875.38, -135325.59, -178006.53, 0.000, 0.000, 0.000, 19:16:26.945
159, -155214.58, -57748.88, -166219.81, -139067.55, -146105.56, -151710.09, -135245.55, -177936.55, 0.000, 0.000, 0.000, 19:16:26.945
160, -155236.30, -56266.52, -166240.22, -139107.28, -146125.11, -151749.27, -135263.72, -177953.25, 0.000, 0.000, 0.000, 19:16:26.945
161, -155306.00, -55579.33, -166307.17, -139239.67, -146190.84, -151879.41, -135324.72, -178007.86, 0.000, 0.000, 0.000, 19:16:26.946
162, -155309.22, -56296.93, -166310.19, -139246.48, -146194.33, -151886.14, -135327.56, -178011.44, 0.002, 0.040, 0.994, 19:16:26.946
163, -155224.08, -57666.54, -166227.75, -139088.02, -146113.61, -151730.55, -135252.19, -177945.61, 0.000, 0.000, 0.000, 19:16:26.946
164, -155216.67, -56684.94, -166219.95, -139073.89, -146105.39, -151716.86, -135244.52, -177939.42, 0.000, 0.000, 0.000, 19:16:26.947
165, -155291.94, -55502.24, -166292.30, -139217.86, -146176.17, -151858.42, -135310.03, -177997.75, 0.000, 0.000, 0.000, 19:16:26.947
166, -155307.11, -56151.40, -166306.89, -139247.41, -146190.86, -151887.45, -135323.42, -178010.45, 0.000, 0.000, 0.000, 19:16:26.947
167, -155234.52, -57440.02, -166236.56, -139111.89, -146122.11, -151754.33, -135259.30, -177954.61, 0.000, 0.000, 0.000, 19:16:26.947
168, -155198.77, -57076.50, -166201.48, -139044.92, -146087.20, -151688.75, -135226.75, -177926.50, 0.000, 0.000, 0.000, 19:16:26.947
169, -155278.44, -55472.96, -166277.97, -139194.61, -146161.94, -151835.84, -135296.31, -177988.59, 0.000, 0.000, 0.000, 19:16:26.947
170, -155304.50, -56027.95, -166303.19, -139245.39, -146186.95, -151885.91, -135319.22, -178009.73, 0.000, 0.000, 0.000, 19:16:26.948
171, -155248.02, -57214.54, -166248.45, -139139.63, -146133.64, -151782.22, -135269.31, -177966.73, 0.000, 0.000, 0.000, 19:16:26.948
172, -155189.20, -57456.21, -166191.19, -139028.11, -146077.16, -151672.78, -135216.78, -177920.97, 0.002, 0.044, 0.994, 19:16:26.948
173, -155264.63, -55583.91, -166263.48, -139168.77, -146147.80, -151811.19, -135282.45, -177979.83, 0.000, 0.000, 0.000, 19:16:26.948
174, -155302.91, -55907.30, -166300.44, -139242.16, -146184.36, -151883.39, -135316.19, -178010.53, 0.000, 0.000, 0.000, 19:16:26.948
175, -155263.08, -56919.86, -166261.81, -139168.19, -146146.83, -151810.73, -135281.06, -177980.34, 0.000, 0.000, 0.000, 19:16:26.949
176, -155185.56, -57753.89, -166186.53, -139022.45, -146072.88, -151667.59, -135212.22, -177920.27, 0.000, 0.000, 0.000, 19:16:26.949
177, -155245.63, -55814.43, -166243.80, -139136.16, -146128.45, -151779.38, -135263.77, -177966.38, 0.000, 0.000, 0.000, 19:16:26.949
178, -155295.05, -55860.83, -166291.47, -139231.16, -146175.42, -151872.75, -135307.00, -178005.39, 0.000, 0.000, 0.000, 19:16:26.949
179, -155272.02, -56729.82, -166269.17, -139188.78, -146153.89, -151831.13, -135286.77, -177988.36, 0.000, 0.000, 0.000, 19:16:26.949
180, -155186.56, -57886.57, -166186.38, -139026.33, -146072.63, -151671.75, -135211.22, -177922.61, 0.000, 0.000, 0.000, 19:16:26.949
181, -155228.75, -56128.18, -166226.55, -139104.47, -146111.50, -151748.77, -135247.36, -177955.36, 0.000, 0.000, 0.000, 19:16:26.949
182, -155289.66, -55746.88, -166285.17, -139221.05, -146169.19, -151863.41, -135300.78, -178003.20, 0.004, 0.044, 0.996, 19:16:26.949
183, -155281.97, -56538.31, -166277.61, -139207.20, -146162.23, -151849.92, -135294.02, -177998.17, 0.000, 0.000, 0.000, 19:16:26.950
184, -155192.88, -57922.33, -166191.20, -139040.45, -146077.67, -151686.20, -135215.13, -177929.42, 0.000, 0.000, 0.000, 19:16:26.950
185, -155208.83, -56515.76, -166206.05, -139069.80, -146091.69, -151715.14, -135228.20, -177941.50, 0.000, 0.000, 0.000, 19:16:26.950
186, -155280.45, -55684.99, -166274.89, -139205.52, -146159.22, -151848.56, -135290.86, -177997.58, 0.000, 0.000, 0.000, 19:16:26.950
187, -155285.44, -56368.15, -166279.72, -139216.20, -146164.31, -151859.13, -135295.19, -178002.33, 0.000, 0.000, 0.000, 19:16:26.950
188, -155204.55, -57743.63, -166201.39, -139063.61, -146087.63, -151709.31, -135223.78, -177940.20, 0.000, 0.000, 0.000, 19:16:26.950
189, -155188.77, -56901.55, -166185.45, -139036.20, -146071.42, -151682.58, -135208.52, -177926.86, 0.000, 0.000, 0.000, 19:16:26.950
190, -155266.56, -55641.25, -166260.11, -139183.44, -146144.58, -151827.23, -135276.38, -177987.50, 0.000, 0.000, 0.000, 19:16:26.950
191, -155285.88, -56262.42, -166278.83, -139219.27, -146163.38, -151862.63, -135293.66, -178004.08, 0.002, 0.048, 0.996, 19:16:26.951
192, -155218.36, -57498.23, -166213.67, -139091.25, -146099.64, -151736.98, -135234.28, -177952.84, 0.000, 0.000, 0.000, 19:16:26.951
193, -155177.11, -57252.43, -166173.30, -139014.30, -146059.61, -151661.52, -135196.89, -177920.28, 0.000, 0.000, 0.000, 19:16:26.951
194, -155254.30, -55592.16, -166247.31, -139161.17, -146131.83, -151805.91, -135263.95, -177979.97, 0.000, 0.000, 0.000, 19:16:26.951
195, -155282.64, -56121.68, -166274.63, -139216.14, -146158.88, -151860.03, -135288.83, -178002.88, 0.000, 0.000, 0.000, 19:16:26.951
196, -155227.72, -57259.64, -166221.36, -139114.89, -146107.09, -151760.67, -135240.25, -177960.72, 0.000, 0.000, 0.000, 19:16:26.951
197, -155163.44, -57561.91, -166158.81, -138994.39, -146045.33, -151642.41, -135182.70, -177910.36, 0.000, 0.000, 0.000, 19:16:26.951
198, -155235.56, -55647.71, -166227.77, -139130.16, -146112.72, -151775.89, -135245.30, -177966.28, 0.000, 0.000, 0.000, 19:16:26.951
199, -155277.61, -55934.25, -166268.39, -139209.20, -146152.95, -151853.70, -135282.45, -178000.28, 0.000, 0.000, 0.000, 19:16:26.951
200, -155243.25, -56894.04, -166235.19, -139143.66, -146120.81, -151789.31, -135252.38, -177974.95, 0.000, 0.000, 0.000, 19:16:26.952
201, -155163.41, -57757.73, -166157.78, -138993.11, -146044.70, -151641.66, -135181.52, -177913.08, 0.004, 0.048, 0.996, 19:16:26.952
202, -155220.28, -55842.55, -166212.02, -139100.89, -146097.41, -151747.63, -135230.48, -177956.78, 0.000, 0.000, 0.000, 19:16:26.952
203, -155271.58, -55812.84, -166261.52, -139199.75, -146146.03, -151844.81, -135275.44, -177997.13, 0.000, 0.000, 0.000, 19:16:26.952
204, -155251.48, -56644.79, -166241.89, -139162.89, -146127.16, -151808.63, -135257.59, -177982.38, 0.000, 0.000, 0.000, 19:16:26.952
205, -155165.16, -57821.21, -166158.34, -138998.92, -146045.20, -151647.63, -135181.33, -177916.14, 0.000, 0.000, 0.000, 19:16:26.952
206, -155202.38, -56100.93, -166193.63, -139067.98, -146079.31, -151715.72, -135213.05, -177944.83, 0.000, 0.000, 0.000, 19:16:26.952
207, -155267.23, -55652.09, -166256.06, -139190.25, -146140.64, -151836.05, -135270.00, -177996.02, 0.000, 0.000, 0.000, 19:16:26.952
208, -155257.48, -56377.07, -166246.44, -139176.91, -146131.47, -151822.78, -135260.92, -177988.45, 0.000, 0.000, 0.000, 19:16:26.952
209, -155168.70, -57708.83, -166160.45, -139011.06, -146047.25, -151660.02, -135182.42, -177919.80, 0.000, 0.000, 0.000, 19:16:27.413
210, -155182.33, -56422.21, -166173.06, -139033.36, -146059.23, -151682.27, -135193.72, -177930.63, 0.000, 0.000, 0.000, 19:16:27.413
211, -155255.92, -55519.41, -166243.95, -139172.47, -146128.66, -151818.91, -135258.09, -177988.33, 0.006, 0.046, 0.998, 19:16:27.413
212, -155262.86, -56204.93, -166250.53, -139187.19, -146135.50, -151833.41, -135264.17, -177994.56, 0.000, 0.000, 0.000, 19:16:27.413
213, -155183.16, -57570.20, -166173.33, -139037.45, -146059.97, -151686.47, -135193.67, -177933.25, 0.000, 0.000, 0.000, 19:16:27.413
214, -155164.00, -56815.36, -166154.17, -139002.13, -146040.66, -151651.91, -135175.56, -177917.80, 0.000, 0.000, 0.000, 19:16:27.414
215, -155240.17, -55475.15, -166227.19, -139148.23, -146112.16, -151795.41, -135241.73, -177976.63, 0.000, 0.000, 0.000, 19:16:27.414
216, -155260.13, -56094.34, -166246.48, -139186.59, -146131.47, -151833.14, -135259.45, -177993.16, 0.000, 0.000, 0.000, 19:16:27.414
217, -155192.81, -57331.91, -166181.23, -139061.13, -146067.69, -151709.98, -135199.95, -177941.47, 0.000, 0.000, 0.000, 19:16:27.414
218, -155146.38, -57184.95, -166135.75, -138974.81, -146022.75, -151625.44, -135157.95, -177904.86, 0.000, 0.000, 0.000, 19:16:27.414
219, -155227.70, -55449.29, -166213.88, -139125.14, -146099.20, -151773.30, -135229.22, -177968.92, 0.000, 0.000, 0.000, 19:16:27.414
220, -155257.41, -55924.11, -166242.53, -139183.44, -146127.59, -151830.75, -135255.25, -177992.70, 0.000, 0.000, 0.000, 19:16:27.414
221, -155205.05, -57058.10, -166191.78, -139087.56, -146078.08, -151736.67, -135208.80, -177952.36, 0.000, 0.046, 0.994, 19:16:27.415
222, -155138.78, -57496.60, -166127.45, -138961.86, -146014.69, -151613.36, -135149.73, -177901.03, 0.000, 0.000, 0.000, 19:16:27.415
223, -155211.25, -55607.16, -166197.00, -139096.08, -146082.45, -151745.23, -135212.83, -177957.66, 0.000, 0.000, 0.000, 19:16:27.415
224, -155254.34, -55852.31, -166238.55, -139178.20, -146123.52, -151825.97, -135250.80, -177992.13, 0.000, 0.000, 0.000, 19:16:27.415
225, -155221.59, -56774.12, -166206.69, -139116.89, -146092.78, -151765.91, -135221.88, -177967.73, 0.000, 0.000, 0.000, 19:16:27.415
226, -155139.88, -57692.49, -166127.44, -138962.59, -146014.94, -151614.45, -135149.42, -177904.48, 0.000, 0.000, 0.000, 19:16:27.415
227, -155194.66, -55823.97, -166179.77, -139065.17, -146065.66, -151715.34, -135196.73, -177946.81, 0.000, 0.000, 0.000, 19:16:27.415
228, -155247.81, -55742.97, -166230.97, -139167.83, -146116.02, -151816.28, -135243.25, -177988.50, 0.000, 0.000, 0.000, 19:16:27.415
229, -155230.42, -56574.23, -166213.98, -139136.23, -146099.83, -151785.39, -135227.72, -177975.73, 0.000, 0.000, 0.000, 19:16:27.415
230, -155142.53, -57795.13, -166128.98, -138970.33, -146016.44, -151622.63, -135150.05, -177908.08, 0.000, 0.000, 0.000, 19:16:27.416
231, -155173.69, -56132.98, -166158.23, -139029.23, -146044.64, -151680.63, -135176.23, -177931.66, 0.000, 0.046, 0.996, 19:16:27.416
232, -155242.83, -55596.43, -166224.86, -139157.63, -146110.20, -151806.73, -135237.34, -177986.69, 0.000, 0.000, 0.000, 19:16:27.416
233, -155239.25, -56343.23, -166221.36, -139152.75, -146107.16, -151801.98, -135234.16, -177984.75, 0.000, 0.000, 0.000, 19:16:27.416
234, -155149.58, -57679.08, -166134.45, -138986.88, -146022.02, -151639.23, -135154.59, -177915.03, 0.000, 0.000, 0.000, 19:16:27.416
235, -155155.08, -56460.39, -166139.13, -138996.17, -146026.16, -151648.53, -135158.36, -177918.98, 0.000, 0.000, 0.000, 19:16:27.416
236, -155229.11, -55465.09, -166210.31, -139137.02, -146095.94, -151786.88, -135222.95, -177976.70, 0.000, 0.000, 0.000, 19:16:27.416
237, -155238.67, -56151.85, -166219.45, -139156.45, -146105.17, -151806.00, -135231.33, -177984.91, 0.000, 0.000, 0.000, 19:16:27.416
238, -155161.94, -57556.32, -166145.08, -139011.78, -146032.53, -151664.09, -135163.67, -177926.19, 0.000, 0.000, 0.000, 19:16:27.417
239, -155138.78, -56926.58, -166122.14, -138967.55, -146009.55, -151620.84, -135142.27, -177907.94, 0.000, 0.000, 0.000, 19:16:27.417
240, -155217.42, -55489.30, -166197.66, -139116.41, -146083.48, -151767.16, -135210.97, -177969.19, 0.000, 0.000, 0.000, 19:16:27.417
241, -155236.33, -56057.46, -166215.80, -139155.66, -146101.59, -151805.75, -135227.31, -177984.23, 0.000, 0.046, 0.996, 19:16:27.417
242, -155175.59, -57244.89, -166157.08, -139039.63, -146044.42, -151691.88, -135174.03, -177938.50, 0.000, 0.000, 0.000, 19:16:27.417
243, -155125.38, -57244.98, -166108.02, -138945.25, -145995.88, -151599.27, -135128.72, -177899.11, 0.000, 0.000, 0.000, 19:16:27.417
244, -155200.70, -55493.68, -166180.28, -139088.78, -146066.34, -151740.31, -135194.09, -177957.45, 0.000, 0.000, 0.000, 19:16:27.417
245, -155233.42, -55943.20, -166211.91, -139152.20, -146097.64, -151802.69, -135222.91, -177983.66, 0.000, 0.000, 0.000, 19:16:27.417
246, -155185.61, -57058.91, -166165.56, -139063.78, -146052.47, -151715.92, -135180.58, -177947.06, 0.000, 0.000, 0.000, 19:16:27.418
247, -155116.98, -57580.28, -166099.00, -138932.73, -145986.91, -151587.36, -135119.67, -177894.22, 0.000, 0.000, 0.000, 19:16:27.418
248, -155185.50, -55613.11, -166164.47, -139060.69, -146050.78, -151713.16, -135179.08, -177947.39, 0.000, 0.000, 0.000, 19:16:27.418
249, -155229.89, -55812.84, -166207.09, -139146.06, -146092.98, -151797.22, -135218.02, -177982.59, 0.000, 0.000, 0.000, 19:16:27.418
250, -155196.67, -56728.90, -166174.80, -139087.38, -146061.63, -151739.50, -135188.36, -177956.97, -0.002, 0.048, 1.000, 19:16:27.418
251, -155112.41, -57708.02, -166093.19, -138928.81, -145981.39, -151584.00, -135113.75, -177891.69, 0.000, 0.000, 0.000, 19:16:27.418
252, -155161.77, -55859.85, -166140.17, -139022.41, -146026.89, -151675.95, -135155.94, -177929.45, 0.000, 0.000, 0.000, 19:16:27.419
253, -155220.61, -55694.98, -166196.88, -139132.67, -146082.81, -151784.44, -135207.70, -177976.25, 0.000, 0.000, 0.000, 19:16:27.419
254, -155206.55, -56472.51, -166183.20, -139107.08, -146069.78, -151759.38, -135195.34, -177966.28, 0.000, 0.000, 0.000, 19:16:27.419
255, -155118.08, -57753.08, -166097.50, -138940.41, -145985.72, -151595.78, -135117.13, -177898.11, 0.000, 0.000, 0.000, 19:16:27.419
0, -155145.53, -56204.96, -166123.45, -138991.25, -146010.58, -151645.81, -135140.25, -177919.19, 0.000, 0.000, 0.000, 19:16:27.419
1, -155212.66, -55559.77, -166188.09, -139119.23, -146073.88, -151771.67, -135198.97, -177971.73, 0.000, 0.000, 0.000, 19:16:27.419
2, -155212.34, -56306.97, -166187.73, -139119.80, -146073.94, -151772.44, -135198.70, -177972.34, 0.000, 0.000, 0.000, 19:16:27.419
3, -155126.95, -57681.16, -166105.06, -138959.52, -145993.05, -151615.03, -135123.36, -177906.61, 0.000, 0.000, 0.000, 19:16:27.419
4, -155125.42, -56591.66, -166102.88, -138956.97, -145990.44, -151612.64, -135120.73, -177904.81, 0.000, 0.044, 0.988, 19:16:27.419
5, -155198.59, -55456.29, -166173.08, -139097.83, -146059.28, -151751.05, -135184.31, -177961.50, 0.000, 0.000, 0.000, 19:16:27.420
6, -155212.52, -56103.05, -166186.47, -139123.67, -146072.80, -151776.61, -135196.80, -177973.56, 0.000, 0.000, 0.000, 19:16:27.420
7, -155141.27, -57440.50, -166117.75, -138986.86, -146005.59, -151642.39, -135134.44, -177919.92, 0.000, 0.000, 0.000, 19:16:27.420
8, -155111.52, -56978.11, -166088.47, -138931.33, -145976.44, -151587.88, -135107.06, -177896.30, 0.000, 0.000, 0.000, 19:16:27.420
9, -155189.19, -55455.48, -166162.91, -139079.08, -146049.20, -151733.19, -135174.53, -177956.38, 0.000, 0.000, 0.000, 19:16:27.420
10, -155214.17, -56046.15, -166186.95, -139126.50, -146073.23, -151779.89, -135196.69, -177977.02, 0.000, 0.000, 0.000, 19:16:27.420
11, -155155.45, -57230.99, -166130.16, -139015.31, -146017.95, -151670.70, -135145.13, -177932.52, 0.000, 0.000, 0.000, 19:16:27.420
12, -155103.88, -57356.56, -166080.03, -138915.58, -145968.44, -151572.89, -135099.22, -177892.97, 0.000, 0.000, 0.000, 19:16:27.420
13, -155179.31, -55495.02, -166152.25, -139057.78, -146038.92, -151712.73, -135164.61, -177951.39, 0.000, 0.000, 0.000, 19:16:27.420
14, -155213.91, -55877.71, -166185.53, -139125.09, -146071.97, -151778.98, -135194.91, -177979.02, 0.004, 0.042, 0.990, 19:16:27.421
15, -155171.11, -56928.26, -166144.17, -139044.81, -146031.70, -151700.25, -135157.27, -177946.86, 0.000, 0.000, 0.000, 19:16:27.421
16, -155098.44, -57641.37, -166073.64, -138906.81, -145962.34, -151564.83, -135092.80, -177890.73, 0.000, 0.000, 0.000, 19:16:27.421
17, -155162.55, -55714.34, -166134.97, -139028.00, -146022.06, -151683.84, -135148.23, -177940.27, 0.000, 0.000, 0.000, 19:16:27.421
18, -155208.70, -55790.73, -166179.33, -139117.28, -146065.84, -151771.56, -135188.64, -177976.63, 0.000, 0.000, 0.000, 19:16:27.421
19, -155180.53, -56662.36, -166151.91, -139066.42, -146039.30, -151721.72, -135163.61, -177955.17, 0.000, 0.000, 0.000, 19:16:27.421
20, -155095.53, -57743.92, -166069.66, -138905.94, -145958.56, -151564.17, -135088.44, -177889.66, 0.000, 0.000, 0.000, 19:16:27.421
21, -155139.58, -55923.37, -166111.39, -138990.41, -145998.95, -151647.19, -135125.80, -177923.05, 0.000, 0.000, 0.000, 19:16:27.421
22, -155197.33, -55652.06, -166166.94, -139101.41, -146053.41, -151756.36, -135176.06, -177968.06, 0.000, 0.000, 0.000, 19:16:27.421
23, -155187.47, -56436.57, -166157.36, -139082.66, -146044.45, -151738.14, -135167.55, -177961.70, 0.000, 0.000, 0.000, 19:16:27.422
24, -155101.81, -57762.98, -166074.59, -138918.95, -145963.34, -151577.59, -135092.23, -177896.34, 0.002, 0.046, 0.990, 19:16:27.422
25, -155123.72, -56273.00, -166095.05, -138959.53, -145983.00, -151617.44, -135110.44, -177913.11, 0.000, 0.000, 0.000, 19:16:27.422
26, -155190.30, -55514.04, -166158.92, -139088.48, -146045.67, -151744.25, -135168.34, -177964.69, 0.000, 0.000, 0.000, 19:16:27.422
27, -155193.66, -56217.70, -166162.27, -139095.27, -146049.38, -151750.91, -135171.59, -177968.52, 0.000, 0.000, 0.000, 19:16:27.422
28, -155109.52, -57611.44, -166080.92, -138937.59, -145969.67, -151596.34, -135097.22, -177903.70, 0.000, 0.000, 0.000, 19:16:27.422
29, -155103.67, -56676.82, -166074.66, -138925.70, -145962.97, -151584.77, -135091.02, -177898.94, 0.000, 0.000, 0.000, 19:16:27.422
30, -155181.36, -55483.89, -166149.20, -139071.91, -146036.09, -151728.48, -135158.92, -177959.64, 0.000, 0.000, 0.000, 19:16:27.423
31, -155195.47, -56128.94, -166162.75, -139100.13, -146049.78, -151756.36, -135171.33, -177971.41, 0.000, 0.000, 0.000, 19:16:27.423
32, -155123.36, -57405.80, -166093.17, -138964.86, -145981.63, -151623.55, -135107.81, -177916.28, 0.000, 0.000, 0.000, 19:16:27.423
33, -155091.80, -57072.81, -166062.08, -138902.77, -145950.84, -151562.75, -135079.33, -177892.09, 0.000, 0.000, 0.000, 19:16:27.423
34, -155170.47, -55493.50, -166137.45, -139051.38, -146024.64, -151708.91, -135147.72, -177953.20, 0.002, 0.042, 0.994, 19:16:27.423
35, -155193.70, -56011.77, -166159.80, -139099.02, -146046.89, -151755.73, -135167.81, -177971.63, 0.000, 0.000, 0.000, 19:16:27.423
36, -155133.27, -57145.12, -166101.03, -138988.89, -145989.56, -151647.47, -135113.97, -177924.55, 0.000, 0.000, 0.000, 19:16:27.424
37, -155074.39, -57412.22, -166043.77, -138878.14, -145933.11, -151538.77, -135061.38, -177878.80, 0.000, 0.000, 0.000, 19:16:27.424
38, -155150.53, -55536.66, -166116.92, -139019.73, -146004.41, -151678.17, -135127.84, -177938.28, 0.000, 0.000, 0.000, 19:16:27.424
39, -155190.69, -55857.01, -166155.70, -139094.59, -146042.73, -151751.84, -135163.39, -177970.84, 0.000, 0.000, 0.000, 19:16:27.424
40, -155151.34, -56879.02, -166117.63, -139020.67, -146005.69, -151679.25, -135128.86, -177941.27, 0.000, 0.000, 0.000, 19:16:27.424
41, -155076.59, -57661.93, -166045.20, -138878.05, -145934.48, -151539.25, -135062.67, -177883.80, 0.000, 0.000, 0.000, 19:16:27.424
42, -155138.30, -55670.97, -166104.09, -138993.94, -145991.89, -151653.20, -135115.94, -177931.53, 0.000, 0.000, 0.000, 19:16:27.424
43, -155188.25, -55653.96, -166152.27, -139089.06, -146039.34, -151746.88, -135159.81, -177971.17, 0.004, 0.042, 0.998, 19:16:27.424
44, -155162.86, -56603.00, -166127.56, -139043.83, -146015.50, -151702.61, -135137.25, -177952.00, 0.000, 0.000, 0.000, 19:16:27.425
45, -155072.64, -57791.73, -166040.08, -138876.88, -145929.59, -151538.72, -135057.08, -177881.44, 0.000, 0.000, 0.000, 19:16:27.425
46, -155113.72, -55992.26, -166079.06, -138954.55, -145967.33, -151615.03, -135092.00, -177912.80, 0.000, 0.000, 0.000, 19:16:27.425
47, -155175.17, -55633.58, -166138.20, -139071.34, -146025.44, -151729.77, -135145.92, -177961.16, 0.000, 0.000, 0.000, 19:16:27.425
48, -155167.53, -56388.00, -166130.70, -139057.33, -146018.53, -151716.06, -135139.25, -177956.42, 0.000, 0.000, 0.000, 19:16:27.425
49, -155078.72, -57725.66, -166044.78, -138890.81, -145934.25, -151552.59, -135060.67, -177887.78, 0.000, 0.000, 0.000, 19:16:27.425
50, -155091.31, -56342.62, -166056.06, -138917.56, -145944.84, -151578.89, -135070.14, -177896.25, 0.000, 0.000, 0.000, 19:16:27.425
51, -155160.34, -55469.81, -166122.30, -139050.33, -146009.86, -151709.44, -135130.19, -177949.81, 0.000, 0.000, 0.000, 19:16:27.425
52, -155166.20, -56211.37, -166127.91, -139061.47, -146015.69, -151720.55, -135135.45, -177955.55, 0.000, 0.000, 0.000, 19:16:27.425
53, -155085.92, -57590.25, -166050.34, -138909.34, -145939.83, -151571.33, -135064.86, -177894.27, 0.000, 0.048, 0.998, 19:16:27.426
54, -155074.19, -56716.70, -166038.41, -138886.84, -145927.61, -151549.42, -135053.45, -177884.78, 0.000, 0.000, 0.000, 19:16:27.426
55, -155151.48, -55431.16, -166112.69, -139033.52, -146000.30, -151693.55, -135120.97, -177945.05, 0.000, 0.000, 0.000, 19:16:27.426
56, -155168.20, -56051.24, -166128.75, -139066.22, -146016.44, -151725.73, -135135.72, -177959.02, 0.000, 0.000, 0.000, 19:16:27.426
57, -155097.34, -57323.04, -166060.05, -138934.39, -145949.33, -151596.28, -135073.02, -177904.44, 0.000, 0.000, 0.000, 19:16:27.426
58, -155057.63, -57109.20, -166021.28, -138859.97, -145910.91, -151523.28, -135037.08, -177873.30, 0.000, 0.000, 0.000, 19:16:27.426
59, -155137.44, -55468.58, -166097.86, -139009.42, -145985.83, -151670.23, -135106.75, -177935.61, 0.000, 0.000, 0.000, 19:16:27.426
60, -155166.50, -55978.63, -166126.00, -139064.88, -146013.66, -151724.84, -135132.42, -177959.20, 0.000, 0.000, 0.000, 19:16:27.426
61, -155112.55, -57115.79, -166073.70, -138964.02, -145962.75, -151625.89, -135084.81, -177918.05, 0.000, 0.000, 0.000, 19:16:27.426
62, -155049.78, -57471.52, -166012.64, -138845.70, -145902.48, -151509.70, -135028.69, -177869.19, 0.000, 0.000, 0.000, 19:16:27.427
63, -155123.27, -55555.93, -166082.95, -138983.05, -145971.22, -151644.75, -135092.55, -177926.41, 0.000, 0.044, 0.998, 19:16:27.427
64, -155164.94, -55853.18, -166123.28, -139061.53, -146010.94, -151721.95, -135129.45, -177959.95, 0.000, 0.000, 0.000, 19:16:27.427
65, -155129.28, -56818.91, -166088.75, -138994.08, -145977.47, -151655.86, -135098.20, -177933.45, 0.000, 0.000, 0.000, 19:16:27.427
66, -155050.02, -57684.96, -166011.86, -138844.61, -145901.97, -151509.27, -135027.91, -177872.09, 0.000, 0.000, 0.000, 19:16:27.427
67, -155107.41, -55759.62, -166066.58, -138953.44, -145955.25, -151616.14, -135077.27, -177916.22, 0.000, 0.000, 0.000, 19:16:27.427
68, -155158.14, -55735.93, -166115.39, -139051.16, -146003.31, -151712.34, -135121.61, -177956.14, 0.000, 0.000, 0.000, 19:16:27.427
69, -155137.33, -56594.77, -166095.20, -139013.09, -145983.78, -151674.95, -135103.14, -177940.75, 0.000, 0.000, 0.000, 19:16:27.428
70, -155048.38, -57820.74, -166009.08, -138846.91, -145899.17, -151511.66, -135024.30, -177871.80, 0.000, 0.000, 0.000, 19:16:27.428
71, -155085.34, -56118.46, -166044.11, -138916.47, -145932.91, -151580.20, -135055.63, -177899.98, 0.000, 0.000, 0.000, 19:16:27.428
72, -155150.00, -55659.64, -166106.38, -139038.17, -145994.14, -151699.92, -135112.58, -177951.08, 0.000, 0.000, 0.000, 19:16:27.428
73, -155146.38, -56392.31, -166102.78, -139030.42, -145991.06, -151692.36, -135109.73, -177949.70, 0.000, 0.042, 0.996, 19:16:27.892
74, -155059.19, -57739.11, -166018.42, -138866.17, -145908.42, -151531.09, -135032.63, -177882.63, 0.000, 0.000, 0.000, 19:16:27.892
75, -155070.78, -56456.28, -166029.02, -138887.30, -145918.33, -151552.09, -135041.70, -177891.36, 0.000, 0.000, 0.000, 19:16:27.892
76, -155140.91, -55508.07, -166096.20, -139022.64, -145984.31, -151685.08, -135102.66, -177945.67, 0.000, 0.000, 0.000, 19:16:27.892
77, -155147.19, -56209.88, -166102.09, -139036.30, -145990.45, -151698.48, -135108.00, -177951.16, 0.000, 0.000, 0.000, 19:16:27.893
78, -155070.05, -57611.60, -166027.64, -138888.95, -145917.70, -151554.02, -135040.41, -177892.66, 0.000, 0.000, 0.000, 19:16:27.893
79, -155054.14, -56847.57, -166011.83, -138857.72, -145901.67, -151523.45, -135025.52, -177880.36, 0.000, 0.000, 0.000, 19:16:27.893
80, -155128.61, -55534.47, -166083.25, -139002.05, -145971.61, -151665.30, -135090.14, -177937.63, 0.000, 0.000, 0.000, 19:16:27.893
81, -155145.38, -56112.62, -166099.34, -139036.88, -145987.64, -151699.41, -135104.56, -177950.92, 0.000, 0.000, 0.000, 19:16:27.893
82, -155079.91, -57340.43, -166036.08, -138912.94, -145925.80, -151577.91, -135047.02, -177901.16, 0.000, 0.000, 0.000, 19:16:27.893
83, -155037.59, -57212.33, -165994.64, -138831.48, -145884.94, -151498.11, -135009.03, -177868.52, 0.004, 0.040, 0.996, 19:16:27.893
84, -155116.75, -55473.50, -166070.64, -138979.66, -145959.23, -151643.81, -135078.06, -177930.36, 0.000, 0.000, 0.000, 19:16:27.893
85, -155147.39, -55942.10, -166100.09, -139038.50, -145988.45, -151701.80, -135105.03, -177955.06, 0.000, 0.000, 0.000, 19:16:27.894
86, -155096.94, -57000.72, -166051.31, -138944.11, -145940.81, -151609.03, -135060.55, -177916.70, 0.000, 0.000, 0.000, 19:16:27.894
87, -155027.78, -57454.15, -165984.03, -138816.11, -145874.61, -151483.48, -134998.63, -177862.41, 0.000, 0.000, 0.000, 19:16:27.894
88, -155096.77, -55544.42, -166050.03, -138947.17, -145939.05, -151612.34, -135058.25, -177915.56, 0.000, 0.000, 0.000, 19:16:27.894
89, -155142.61, -55819.61, -166094.28, -139031.69, -145982.75, -151695.41, -135098.95, -177952.84, 0.000, 0.000, 0.000, 19:16:27.894
90, -155108.45, -56779.15, -166061.05, -138968.70, -145950.56, -151633.58, -135068.81, -177926.98, 0.000, 0.000, 0.000, 19:16:27.894
91, -155025.23, -57690.12, -165980.36, -138813.30, -145871.25, -151481.05, -134994.81, -177862.28, 0.000, 0.000, 0.000, 19:16:27.894
92, -155079.30, -55738.99, -166031.97, -138915.63, -145921.34, -151581.72, -135041.28, -177903.77, 0.000, 0.000, 0.000, 19:16:27.895
93, -155134.09, -55634.07, -166084.67, -139019.47, -145973.25, -151683.78, -135089.36, -177947.17, 0.004, 0.042, 0.990, 19:16:27.895
94, -155118.22, -56487.21, -166069.20, -138988.86, -145958.50, -151653.88, -135075.45, -177936.13, 0.000, 0.000, 0.000, 19:16:27.895
95, -155028.44, -57770.94, -165982.34, -138821.27, -145873.38, -151489.39, -134996.03, -177866.61, 0.000, 0.000, 0.000, 19:16:27.895
96, -155059.55, -56115.86, -166011.72, -138880.86, -145901.47, -151547.97, -135022.08, -177889.80, 0.000, 0.000, 0.000, 19:16:27.895
97, -155127.06, -55599.61, -166076.78, -139007.27, -145965.41, -151672.34, -135081.58, -177943.38, 0.000, 0.000, 0.000, 19:16:27.895
98, -155123.72, -56352.86, -166073.41, -139002.08, -145962.50, -151667.33, -135078.63, -177941.78, 0.000, 0.000, 0.000, 19:16:27.895
99, -155035.52, -57715.76, -165988.00, -138837.61, -145878.86, -151505.80, -135000.48, -177873.45, 0.000, 0.000, 0.000, 19:16:27.895
100, -155041.31, -56482.50, -165993.08, -138848.34, -145883.17, -151516.38, -135004.38, -177877.52, 0.000, 0.000, 0.000, 19:16:27.896
101, -155116.83, -55470.08, -166065.67, -138990.25, -145954.45, -151656.00, -135070.58, -177936.89, 0.000, 0.000, 0.000, 19:16:27.896
102, -155126.33, -56158.55, -166074.75, -139009.22, -145963.75, -151674.66, -135078.98, -177945.19, 0.002, 0.040, 0.992, 19:16:27.896
103, -155047.83, -57517.23, -165998.83, -138862.48, -145889.50, -151530.66, -135009.63, -177884.81, 0.000, 0.000, 0.000, 19:16:27.896
104, -155026.17, -56868.04, -165977.25, -138820.69, -145867.88, -151489.80, -134989.63, -177867.80, 0.000, 0.000, 0.000, 19:16:27.896
105, -155103.98, -55415.76, -166052.00, -138968.70, -145941.00, -151635.14, -135057.44, -177928.23, 0.000, 0.000, 0.000, 19:16:27.896
106, -155126.38, -56006.54, -166073.50, -139011.02, -145962.52, -151676.77, -135077.22, -177946.72, 0.000, 0.000, 0.000, 19:16:27.896
107, -155065.06, -57285.53, -166014.36, -138893.83, -145904.73, -151561.83, -135023.52, -177900.52, 0.000, 0.000, 0.000, 19:16:27.897
108, -155015.89, -57261.75, -165966.25, -138801.41, -145857.31, -151471.20, -134979.25, -177861.94, 0.000, 0.000, 0.000, 19:16:27.897
109, -155091.00, -55530.34, -166038.16, -138944.78, -145927.53, -151612.17, -135044.31, -177919.86, 0.000, 0.000, 0.000, 19:16:27.897
110, -155122.95, -56085.24, -166069.03, -139006.88, -145958.09, -151673.36, -135072.45, -177945.52, 0.000, 0.000, 0.000, 19:16:27.898
111, -155076.78, -57314.50, -166024.42, -138919.53, -145914.78, -151587.73, -135031.95, -177910.80, 0.000, 0.000, 0.000, 19:16:27.898
112, -155007.78, -57968.51, -165957.36, -138788.66, -145848.72, -151459.30, -134970.56, -177857.55, 0.004, 0.040, 0.998, 19:16:27.898
113, -155076.11, -56123.60, -166022.77, -138917.06, -145912.66, -151585.55, -135029.88, -177910.53, 0.000, 0.000, 0.000, 19:16:27.898
114, -155118.58, -56359.25, -166063.63, -139000.16, -145952.95, -151667.02, -135066.84, -177943.84, 0.000, 0.000, 0.000, 19:16:27.898
115, -155088.25, -57326.46, -166034.23, -138943.69, -145924.52, -151611.59, -135040.16, -177921.27, 0.000, 0.000, 0.000, 19:16:27.898
116, -155008.11, -58212.59, -165956.72, -138789.73, -145848.39, -151460.73, -134969.47, -177860.09, 0.000, 0.000, 0.000, 19:16:27.898
117, -155057.36, -56100.78, -166003.50, -138884.03, -145893.70, -151553.52, -135011.45, -177897.58, 0.000, 0.000, 0.000, 19:16:27.899
118, -155111.69, -55752.67, -166055.70, -138989.28, -145945.05, -151656.94, -135058.83, -177939.95, 0.000, 0.000, 0.000, 19:16:27.899
119, -155096.47, -56413.39, -166040.75, -138961.84, -145930.88, -151630.14, -135045.33, -177928.91, 0.000, 0.000, 0.000, 19:16:27.899
120, -155008.41, -57550.55, -165955.58, -138795.66, -145847.27, -151467.06, -134967.63, -177861.20, 0.000, 0.000, 0.000, 19:16:27.899
121, -155037.13, -55929.89, -165982.64, -138848.89, -145873.27, -151519.30, -134991.88, -177883.14, 0.000, 0.000, 0.000, 19:16:27.899
122, -155106.55, -55363.53, -166049.45, -138978.83, -145939.03, -151646.95, -135052.92, -177938.09, 0.006, 0.044, 1.000, 19:16:27.900
123, -155105.33, -56156.16, -166048.06, -138977.80, -145938.09, -151646.05, -135051.78, -177937.92, 0.000, 0.000, 0.000, 19:16:27.900
124, -155016.47, -57590.56, -165961.98, -138813.53, -145853.64, -151484.88, -134972.80, -177868.73, 0.000, 0.000, 0.000, 19:16:27.900
125, -155018.69, -56550.16, -165963.63, -138816.05, -145854.77, -151487.63, -134973.86, -177870.42, 0.000, 0.000, 0.000, 19:16:27.900
126, -155094.08, -55470.75, -166036.08, -138959.00, -145925.84, -151628.13, -135039.78, -177929.36, 0.000, 0.000, 0.000, 19:16:27.900
127, -155103.75, -56167.18, -166045.36, -138980.22, -145935.19, -151648.95, -135048.13, -177937.50, 0.000, 0.000, 0.000, 19:16:27.900
128, -155026.42, -57532.32, -165970.53, -138836.63, -145861.94, -151507.94, -134979.72, -177877.77, 0.000, 0.000, 0.000, 19:16:27.901
